#K IRAF       = NOAO/IRAFV2.16.1        version    %-23s     
#K USER       = juan                    name       %-23s     
#K HOST       = juan-UX303LA            computer   %-23s     
#K DATE       = 2016-03-27              yyyy-mm-dd %-23s     
#K TIME       = 15:40:20                hh:mm:ss   %-23s     
#K PACKAGE    = apphot                  name       %-23s     
#K TASK       = daofind                 name       %-23s     
#
#K SCALE      = 1.                      units      %-23.7g   
#K FWHMPSF    = 10.561                  scaleunit  %-23.7g   
#K EMISSION   = yes                     switch     %-23b     
#K DATAMIN    = 18000.                  counts     %-23.7g   
#K DATAMAX    = INDEF                   counts     %-23.7g   
#K EXPOSURE   = ""                      keyword    %-23s     
#K AIRMASS    = ""                      keyword    %-23s     
#K FILTER     = ""                      keyword    %-23s     
#K OBSTIME    = ""                      keyword    %-23s     
#
#K NOISE      = poisson                 model      %-23s     
#K SIGMA      = 262.                    counts     %-23.7g   
#K GAIN       = ""                      keyword    %-23s     
#K EPADU      = 1.                      e-/adu     %-23.7g   
#K CCDREAD    = ""                      keyword    %-23s     
#K READNOISE  = 0.                      e-         %-23.7g   
#
#K IMAGE      = I                       imagename  %-23s     
#K FWHMPSF    = 10.561                  scaleunit  %-23.7g   
#K THRESHOLD  = 4.                      sigma      %-23.7g   
#K NSIGMA     = 1.5                     sigma      %-23.7g   
#K RATIO      = 1.                      number     %-23.7g   
#K THETA      = 0.                      degrees    %-23.7g   
#
#K SHARPLO    = 0.2                     number     %-23.7g   
#K SHARPHI    = 1.                      number     %-23.7g   
#K ROUNDLO    = -1.                     number     %-23.7g   
#K ROUNDHI    = 1.                      number     %-23.7g   
#
#N XCENTER   YCENTER   MAG      SHARPNESS   SROUND      GROUND      ID         \
#U pixels    pixels    #        #           #           #           #          \
#F %-13.3f   %-10.3f   %-9.3f   %-12.3f     %-12.3f     %-12.3f     %-6d       \
#
   823.169   2.878     -4.865   0.361       -0.387      0.005       1     
   839.218   2.186     -4.692   0.563       0.019       0.572       2     
   1288.783  4.695     -5.473   0.468       -0.346      -0.353      3     
   1906.365  13.699    -5.930   0.230       -0.258      -0.235      4     
   470.083   16.210    -5.785   0.247       -0.310      0.511       5     
   921.621   16.728    -5.761   0.260       -0.402      0.082       6     
   1487.675  21.842    -5.314   0.235       -0.585      -0.631      7     
   905.341   26.227    -5.516   0.241       -0.628      0.446       8     
   1478.857  25.802    -5.644   0.239       -0.492      -0.128      9     
   51.564    27.874    -5.905   0.244       -0.198      0.257       10    
   1154.317  31.957    -5.747   0.322       -0.154      0.207       11    
   1350.757  32.552    -5.604   0.325       0.011       -0.373      12    
   419.344   40.273    -5.114   0.201       -0.352      0.027       13    
   1421.040  44.988    -5.408   0.206       -0.351      0.047       14    
   870.817   51.536    -5.523   0.325       -0.075      -0.145      15    
   1274.659  53.984    -5.627   0.259       -0.053      -0.278      16    
   1607.260  55.148    -5.803   0.280       -0.208      -0.463      17    
   739.371   56.353    -5.641   0.212       -0.458      0.096       18    
   875.031   59.826    -5.545   0.348       0.099       0.505       19    
   222.855   61.197    -5.819   0.229       -0.230      0.797       20    
   1283.201  61.066    -5.511   0.329       0.078       0.341       21    
   1038.783  67.157    -5.541   0.208       -0.377      0.012       22    
   1204.413  68.129    -5.823   0.263       -0.189      0.760       23    
   1077.686  68.432    -5.599   0.224       -0.329      -0.211      24    
   291.137   71.981    -5.777   0.245       -0.270      -0.122      25    
   1132.471  78.246    -5.127   0.265       -0.291      -0.053      26    
   1939.870  76.837    -5.591   0.223       -0.346      0.152       27    
   1115.797  78.429    -5.770   0.315       -0.172      0.357       28    
   47.032    80.161    -5.715   0.210       -0.373      -0.004      29    
   1846.903  82.474    -5.723   0.221       -0.319      0.102       30    
   1525.863  78.967    -5.125   0.228       -0.632      -0.198      31    
   1985.515  84.096    -5.102   0.254       0.097       -0.034      32    
   250.492   83.243    -5.547   0.212       -0.412      0.022       33    
   1996.643  88.610    -5.939   0.311       -0.180      0.427       34    
   1158.846  89.492    -5.753   0.272       -0.253      -0.772      35    
   1982.972  86.523    -5.009   0.272       -0.268      -0.527      36    
   479.866   95.230    -5.139   0.265       -0.336      0.067       37    
   714.810   99.184    -5.661   0.226       -0.283      0.284       38    
   1047.023  106.813   -5.634   0.222       -0.275      0.295       39    
   1827.108  104.292   -5.574   0.426       -0.166      0.109       40    
   448.592   113.215   -4.837   0.254       -0.096      -0.860      41    
   674.467   109.096   -5.779   0.221       -0.203      0.188       42    
   447.891   113.054   -4.911   0.221       -0.209      -0.427      43    
   1370.026  119.415   -5.765   0.304       -0.249      0.408       44    
   1442.771  126.785   -5.730   0.226       -0.203      0.084       45    
   46.946    125.117   -5.820   0.263       -0.217      0.793       46    
   1076.126  130.093   -5.733   0.231       -0.409      0.155       47    
   886.992   129.588   -5.544   0.215       -0.217      0.145       48    
   1518.281  129.363   -5.754   0.295       -0.173      0.377       49    
   204.812   131.218   -5.783   0.230       -0.238      0.481       50    
   591.103   131.932   -5.590   0.268       -0.676      -0.241      51    
   406.094   132.123   -5.712   0.249       -0.354      -0.054      52    
   1089.886  132.374   -5.666   0.353       -0.132      -0.287      53    
   735.096   135.664   -5.282   0.211       -0.280      0.098       54    
   1974.800  135.138   -5.943   0.252       -0.220      0.650       55    
   1058.634  136.357   -5.615   0.257       -0.554      -0.474      56    
   1729.700  137.355   -5.639   0.207       -0.301      0.126       57    
   1035.988  137.991   -5.718   0.283       -0.397      0.520       58    
   1307.470  140.912   -5.735   0.300       -0.305      -0.476      59    
   842.788   144.186   -5.602   0.284       -0.517      0.080       60    
   1022.739  147.355   -5.693   0.223       -0.391      0.018       61    
   1840.557  155.735   -5.859   0.226       -0.266      0.260       62    
   1881.193  163.486   -5.756   0.216       -0.372      -0.157      63    
   431.301   161.089   -4.925   0.228       -0.269      0.163       64    
   1654.049  169.677   -4.776   0.245       0.271       -0.070      65    
   1654.894  169.872   -4.953   0.247       -0.082      -0.423      66    
   1723.934  174.156   -5.872   0.280       -0.117      0.681       67    
   576.886   175.337   -5.740   0.302       -0.214      0.851       68    
   1091.512  175.503   -5.571   0.316       0.265       0.090       69    
   1112.752  176.295   -5.336   0.441       -0.135      -0.175      70    
   905.379   178.276   -5.299   0.207       -0.402      0.138       71    
   948.060   182.210   -5.510   0.201       -0.334      0.116       72    
   1734.222  190.530   -5.692   0.218       -0.353      0.108       73    
   1342.967  189.455   -5.048   0.248       -0.206      -0.020      74    
   1119.023  190.227   -5.652   0.237       -0.003      -0.271      75    
   140.764   190.177   -5.828   0.209       -0.211      0.701       76    
   1343.523  188.476   -5.005   0.221       -0.498      -0.080      77    
   846.305   199.607   -5.475   0.241       -0.828      -0.042      78    
   958.914   202.050   -5.312   0.237       0.429       0.530       79    
   1798.824  199.763   -5.553   0.216       -0.644      -0.068      80    
   1386.802  205.961   -5.723   0.257       -0.295      -0.026      81    
   998.887   207.724   -4.981   0.288       0.242       -0.466      82    
   83.824    204.586   -4.925   0.201       -0.313      -0.125      83    
   997.479   208.386   -5.014   0.208       -0.071      0.394       84    
   24.881    211.861   -5.811   0.217       -0.406      0.206       85    
   961.865   209.473   -4.741   0.204       -0.381      -0.192      86    
   1432.949  213.316   -5.870   0.253       -0.228      0.886       87    
   962.043   212.179   -4.783   0.275       0.160       -0.894      88    
   800.980   216.310   -5.550   0.214       -0.532      -0.032      89    
   1699.898  220.178   -5.916   0.259       -0.203      0.953       90    
   1020.874  217.066   -5.733   0.229       -0.323      0.308       91    
   1506.896  221.825   -5.016   0.248       -0.212      -0.141      92    
   584.673   219.487   -5.589   0.362       -0.267      0.304       93    
   1316.335  222.038   -5.446   0.221       -0.580      -0.258      94    
   1864.659  221.625   -5.707   0.324       -0.301      -0.144      95    
   339.308   222.035   -5.715   0.226       -0.216      0.657       96    
   1149.854  225.144   -5.193   0.244       0.506       -0.001      97    
   1381.503  224.972   -5.495   0.213       -0.452      0.060       98    
   1152.958  225.980   -4.918   0.342       0.009       0.148       99    
   1507.631  220.478   -5.030   0.253       -0.432      0.225       100   
   1640.992  225.596   -5.335   0.209       -0.399      -0.002      101   
   1975.365  219.213   -5.829   0.227       -0.488      0.310       102   
   416.240   231.860   -5.652   0.248       -0.462      0.220       103   
   597.339   227.988   -5.485   0.224       0.032       0.286       104   
   885.131   228.311   -5.406   0.452       -0.233      0.883       105   
   1826.748  233.313   -5.825   0.293       -0.095      -0.708      106   
   68.883    234.164   -5.831   0.222       -0.304      0.562       107   
   1410.718  234.053   -5.755   0.234       -0.225      -0.168      108   
   1116.475  230.375   -5.327   0.241       0.178       0.518       109   
   1152.499  232.957   -5.115   0.242       -0.097      0.256       110   
   418.049   239.876   -5.053   0.211       -0.152      0.262       111   
   702.022   239.934   -5.611   0.224       -0.270      -0.414      112   
   1085.003  247.164   -5.687   0.248       -0.387      -0.454      113   
   424.450   249.878   -5.362   0.408       -0.074      -0.046      114   
   1786.436  250.473   -4.876   0.539       -0.129      0.132       115   
   849.372   253.827   -5.598   0.235       -0.331      0.056       116   
   267.280   257.374   -5.656   0.262       -0.000      0.257       117   
   1272.363  257.675   -5.387   0.214       -0.371      0.055       118   
   826.094   258.395   -5.201   0.410       -0.328      -0.072      119   
   1797.683  256.162   -5.087   0.260       -0.531      0.415       120   
   1418.628  263.549   -5.197   0.222       -0.252      0.148       121   
   705.752   266.779   -5.206   0.203       -0.305      0.064       122   
   1294.725  267.264   -5.095   0.241       -0.541      0.085       123   
   1233.200  267.193   -5.147   0.247       -0.495      -0.133      124   
   759.688   274.012   -5.548   0.229       -0.284      0.192       125   
   874.835   273.127   -5.737   0.295       -0.209      0.567       126   
   1895.911  274.252   -5.542   0.217       -0.333      0.092       127   
   1091.954  282.030   -5.707   0.244       -0.466      0.060       128   
   1010.999  284.016   -5.703   0.296       -0.455      -0.499      129   
   1153.970  286.003   -5.430   0.212       -0.346      0.156       130   
   1423.664  288.644   -5.048   0.236       -0.358      -0.028      131   
   778.519   285.679   -5.627   0.267       -0.495      -0.093      132   
   972.095   300.530   -4.948   0.245       0.043       0.408       133   
   1521.456  299.634   -5.258   0.237       -0.379      0.091       134   
   594.753   302.867   -4.831   0.252       0.035       0.828       135   
   207.438   299.862   -4.924   0.213       -0.424      -0.542      136   
   514.422   303.556   -5.667   0.293       -0.271      -0.206      137   
   973.362   300.399   -4.934   0.251       -0.319      -0.045      138   
   1820.259  304.129   -5.688   0.246       -0.500      0.250       139   
   595.312   302.661   -4.922   0.274       -0.313      -0.252      140   
   755.299   313.855   -5.658   0.233       -0.306      -0.116      141   
   412.496   305.921   -5.583   0.282       0.064       -0.299      142   
   627.984   318.960   -5.633   0.225       -0.292      -0.072      143   
   859.977   317.297   -5.268   0.433       -0.255      0.236       144   
   1112.649  318.009   -5.651   0.349       -0.246      0.306       145   
   1465.120  317.122   -5.752   0.237       -0.357      0.073       146   
   1944.654  319.678   -5.255   0.205       -0.442      0.133       147   
   1590.958  324.644   -5.761   0.219       -0.359      -0.292      148   
   1524.966  326.286   -4.927   0.214       0.087       -0.572      149   
   1652.511  325.085   -5.541   0.238       -0.735      -0.063      150   
   1096.301  323.776   -5.677   0.301       -0.342      0.260       151   
   1544.718  326.257   -5.650   0.334       -0.001      0.816       152   
   886.042   327.247   -5.433   0.443       -0.141      0.252       153   
   1524.690  324.883   -5.026   0.292       0.307       0.509       154   
   1672.361  331.175   -5.699   0.317       -0.128      0.244       155   
   1022.970  332.263   -5.713   0.287       -0.169      0.625       156   
   915.197   330.954   -5.759   0.266       -0.070      0.624       157   
   1790.983  337.370   -5.534   0.218       -0.421      0.084       158   
   1971.957  338.092   -5.847   0.271       -0.152      0.982       159   
   769.609   343.646   -5.045   0.286       -0.161      0.184       160   
   1363.977  339.980   -5.622   0.332       -0.148      -0.284      161   
   1155.118  342.177   -5.753   0.286       -0.240      0.259       162   
   1328.748  341.760   -5.641   0.234       -0.395      0.001       163   
   316.962   343.144   -5.698   0.225       -0.361      0.280       164   
   583.929   343.156   -5.666   0.301       -0.215      0.751       165   
   885.468   344.936   -5.654   0.240       -0.134      -0.119      166   
   1830.086  345.304   -5.854   0.290       -0.108      0.267       167   
   797.968   342.742   -4.991   0.304       -0.082      -0.175      168   
   1266.748  348.640   -5.362   0.242       -0.236      0.078       169   
   864.340   348.197   -5.396   0.459       -0.706      0.508       170   
   1072.012  349.310   -5.492   0.227       -0.555      -0.057      171   
   879.172   350.220   -5.610   0.258       -0.392      -0.083      172   
   1674.549  350.457   -5.290   0.200       -0.404      0.246       173   
   1181.808  351.998   -5.328   0.208       -0.268      0.002       174   
   1324.528  359.003   -5.083   0.308       -0.554      0.168       175   
   1001.700  356.564   -5.672   0.287       -0.278      -0.023      176   
   1411.409  358.983   -5.031   0.257       -0.403      0.290       177   
   1261.415  358.460   -5.416   0.214       -0.761      0.247       178   
   1779.574  359.658   -5.575   0.230       -0.344      -0.121      179   
   1064.191  361.102   -5.159   0.269       0.446       -0.219      180   
   1153.617  363.594   -5.301   0.202       -0.375      -0.000      181   
   1321.577  357.083   -5.023   0.286       -0.348      -0.149      182   
   1412.868  357.739   -4.989   0.228       -0.508      -0.077      183   
   1225.516  367.834   -5.222   0.237       -0.412      -0.041      184   
   630.159   366.983   -5.670   0.245       -0.364      -0.080      185   
   971.560   366.486   -5.480   0.223       -0.345      0.080       186   
   1138.713  368.797   -5.644   0.235       -0.310      -0.111      187   
   733.392   368.051   -5.583   0.278       -0.402      -0.043      188   
   403.150   370.095   -5.306   0.206       -0.639      0.004       189   
   58.412    373.359   -5.156   0.225       -0.238      -0.015      190   
   582.052   372.828   -5.620   0.253       0.085       -0.153      191   
   1096.007  370.505   -5.241   0.220       -0.498      0.224       192   
   1031.282  377.467   -5.664   0.257       -0.279      -0.091      193   
   1062.164  377.222   -5.033   0.298       -0.360      0.065       194   
   725.642   376.156   -5.724   0.260       -0.300      0.113       195   
   948.800   382.133   -5.466   0.347       -0.557      0.283       196   
   1061.212  377.999   -5.017   0.293       -0.526      -0.142      197   
   1144.469  386.472   -4.844   0.334       -0.203      0.199       198   
   1351.050  389.333   -5.297   0.211       -0.435      -0.084      199   
   1483.050  390.074   -4.790   0.350       0.218       -0.261      200   
   862.059   385.365   -5.155   0.274       -0.565      0.111       201   
   1193.093  393.306   -5.259   0.217       0.716       -0.056      202   
   532.269   392.459   -5.606   0.342       -0.145      -0.824      203   
   1485.198  390.966   -4.919   0.287       -0.058      0.586       204   
   1385.651  393.441   -5.620   0.217       -0.433      0.025       205   
   1141.612  390.634   -4.853   0.363       -0.174      0.180       206   
   1157.115  398.440   -4.848   0.368       0.211       -0.399      207   
   1484.140  391.907   -4.885   0.284       0.086       -0.474      208   
   1039.746  402.569   -5.249   0.251       -0.277      -0.054      209   
   1061.152  401.797   -4.766   0.551       -0.167      0.720       210   
   1225.993  402.124   -5.609   0.366       -0.147      0.213       211   
   828.304   403.072   -5.432   0.288       -0.739      -0.501      212   
   1493.462  398.441   -5.610   0.275       -0.626      -0.033      213   
   889.072   404.845   -4.821   0.560       0.323       -0.796      214   
   1635.815  405.122   -5.629   0.231       -0.727      -0.229      215   
   1204.353  405.823   -5.709   0.232       -0.263      -0.014      216   
   503.804   411.153   -5.544   0.235       -0.314      -0.033      217   
   1155.154  405.459   -5.195   0.331       -0.532      -0.089      218   
   823.023   406.558   -5.030   0.272       -0.424      0.263       219   
   1184.787  416.123   -5.694   0.242       -0.247      0.025       220   
   754.004   419.237   -5.654   0.341       -0.304      -0.272      221   
   1962.926  420.295   -5.835   0.286       -0.092      -0.114      222   
   482.433   423.056   -5.212   0.204       -0.069      0.006       223   
   1262.568  419.788   -5.141   0.242       -0.464      0.397       224   
   526.113   423.135   -5.458   0.290       -0.163      -0.550      225   
   649.704   421.099   -5.662   0.228       -0.392      -0.039      226   
   889.691   423.358   -5.306   0.224       0.543       0.485       227   
   1103.838  429.035   -5.379   0.417       -0.069      -0.506      228   
   931.092   426.454   -5.057   0.497       -0.252      -0.617      229   
   336.457   427.090   -5.683   0.259       -0.384      0.812       230   
   449.573   429.838   -5.843   0.246       -0.254      0.064       231   
   1750.532  429.004   -5.606   0.234       -0.392      -0.021      232   
   912.375   429.196   -5.330   0.363       -0.972      -0.750      233   
   1604.022  430.582   -5.706   0.312       -0.218      -0.213      234   
   1112.095  430.003   -5.562   0.223       0.024       0.050       235   
   1586.333  431.080   -5.331   0.204       -0.553      -0.200      236   
   756.867   432.449   -5.157   0.555       -0.642      -0.034      237   
   1247.939  434.123   -4.570   0.513       0.323       0.718       238   
   299.256   435.211   -5.721   0.307       -0.210      0.883       239   
   534.356   435.201   -5.608   0.366       0.104       0.936       240   
   749.897   439.242   -5.465   0.351       -0.431      0.119       241   
   808.490   436.398   -5.640   0.292       -0.329      -0.692      242   
   985.255   439.967   -5.397   0.295       0.496       -0.285      243   
   500.852   431.695   -5.026   0.247       -0.467      -0.016      244   
   583.793   440.895   -4.839   0.287       0.242       -0.569      245   
   1175.031  438.305   -5.500   0.210       -0.538      -0.027      246   
   380.651   435.518   -5.604   0.307       -0.400      0.579       247   
   669.510   445.429   -5.504   0.285       0.059       -0.337      248   
   896.937   448.309   -5.599   0.342       -0.346      0.427       249   
   437.184   443.129   -5.716   0.304       -0.223      0.209       250   
   1070.366  443.485   -5.222   0.390       -0.771      -0.187      251   
   1131.094  440.579   -5.691   0.251       -0.264      0.159       252   
   1189.221  443.952   -4.882   0.683       0.663       0.286       253   
   1241.050  441.801   -5.574   0.302       -0.519      0.045       254   
   1008.567  447.104   -5.218   0.279       -0.844      0.162       255   
   583.758   442.578   -4.854   0.288       -0.435      -0.733      256   
   677.135   446.307   -5.113   0.415       0.594       0.638       257   
   745.977   446.028   -4.565   0.822       0.364       -0.983      258   
   1663.235  445.807   -5.595   0.208       -0.388      -0.088      259   
   257.779   449.074   -5.612   0.263       -0.195      -0.248      260   
   349.959   447.863   -5.847   0.253       -0.281      -0.296      261   
   917.652   449.494   -5.321   0.449       -0.307      -0.209      262   
   954.858   450.440   -5.631   0.246       -0.258      -0.077      263   
   758.163   453.447   -5.162   0.366       -0.905      -0.998      264   
   1421.974  454.144   -5.646   0.314       -0.269      0.533       265   
   837.115   454.904   -4.819   0.646       0.138       0.298       266   
   1007.558  449.131   -5.217   0.259       0.491       0.736       267   
   751.082   454.278   -5.144   0.298       -0.879      0.277       268   
   868.933   459.718   -5.018   0.235       -0.233      -0.169      269   
   789.363   459.304   -4.745   0.285       0.298       -0.229      270   
   824.051   460.393   -5.407   0.206       -0.473      0.024       271   
   1171.085  464.019   -5.557   0.406       -0.094      0.795       272   
   1197.596  460.518   -5.377   0.247       0.476       0.121       273   
   632.853   464.221   -5.573   0.363       0.057       -0.479      274   
   835.964   458.576   -5.444   0.291       -0.191      0.148       275   
   793.316   463.460   -5.028   0.362       0.697       0.106       276   
   718.950   466.506   -5.167   0.357       -0.681      0.801       277   
   1323.714  464.874   -5.365   0.319       -0.932      0.035       278   
   1202.515  465.385   -5.310   0.376       0.245       0.197       279   
   1268.391  471.903   -4.974   0.278       -0.077      -0.286      280   
   652.555   467.183   -5.671   0.287       -0.081      -0.214      281   
   783.810   473.048   -5.463   0.326       -0.683      -0.020      282   
   288.296   474.106   -5.805   0.254       -0.185      0.843       283   
   1847.960  475.918   -5.769   0.228       -0.400      -0.662      284   
   1260.068  474.863   -5.163   0.255       -0.845      -0.979      285   
   1383.137  477.471   -5.002   0.268       -0.455      0.003       286   
   1698.283  480.656   -5.672   0.327       -0.110      0.000       287   
   715.741   475.284   -5.240   0.260       -0.558      0.075       288   
   469.740   475.353   -4.993   0.258       -0.348      -0.311      289   
   610.027   479.459   -5.486   0.264       -0.298      -0.248      290   
   1036.580  483.410   -4.865   0.294       0.014       -0.206      291   
   664.150   485.173   -4.830   0.301       0.091       -0.628      292   
   975.426   484.644   -5.087   0.292       -0.244      0.093       293   
   1382.724  477.633   -4.987   0.293       -0.106      0.080       294   
   588.360   484.080   -5.719   0.292       -0.174      0.784       295   
   819.561   481.774   -5.575   0.249       -0.165      0.037       296   
   1241.717  489.092   -5.764   0.251       -0.363      -0.051      297   
   617.052   487.678   -5.553   0.228       -0.409      0.150       298   
   665.872   488.850   -4.913   0.253       0.509       -0.047      299   
   1122.208  487.930   -5.497   0.265       -0.296      -0.384      300   
   1038.159  488.139   -4.741   0.352       0.276       0.099       301   
   471.089   488.405   -5.641   0.294       -0.320      -0.013      302   
   666.846   488.060   -4.713   0.315       0.068       -0.595      303   
   1551.557  496.525   -5.486   0.279       0.239       -0.092      304   
   931.547   494.258   -4.944   0.333       -0.254      0.167       305   
   1178.578  492.146   -5.523   0.360       -0.241      -0.204      306   
   1920.420  491.836   -5.399   0.362       -0.219      0.101       307   
   751.465   492.409   -5.527   0.303       -0.075      0.135       308   
   1545.463  498.484   -5.243   0.456       0.439       -0.648      309   
   912.091   501.407   -5.345   0.407       -0.136      -0.045      310   
   1311.141  499.488   -5.620   0.339       -0.270      -0.173      311   
   1331.926  500.340   -5.680   0.307       -0.071      0.155       312   
   931.437   498.270   -4.903   0.387       0.829       -0.306      313   
   370.258   503.389   -5.026   0.490       0.144       0.776       314   
   862.010   503.210   -5.308   0.480       -0.434      0.544       315   
   994.163   503.271   -5.525   0.248       -0.238      0.018       316   
   1611.199  499.722   -5.176   0.254       -0.624      -0.063      317   
   588.245   506.389   -5.343   0.355       -0.188      -0.310      318   
   1857.822  506.328   -5.771   0.249       -0.282      0.494       319   
   794.675   508.774   -5.080   0.202       -0.332      0.308       320   
   964.789   505.040   -5.547   0.249       -0.320      0.012       321   
   1187.038  509.196   -5.374   0.265       -0.138      0.050       322   
   1384.634  506.287   -5.278   0.238       -0.635      -0.258      323   
   1557.576  506.918   -5.605   0.222       -0.368      0.100       324   
   1198.045  512.734   -4.993   0.249       -0.194      -0.134      325   
   1973.733  509.995   -5.826   0.306       -0.150      0.409       326   
   995.005   514.711   -5.134   0.564       0.042       -0.328      327   
   622.905   512.673   -5.662   0.250       -0.335      -0.107      328   
   1375.275  520.695   -5.526   0.242       -0.308      -0.003      329   
   1592.267  524.350   -5.071   0.239       -0.325      0.298       330   
   401.823   523.531   -5.514   0.303       0.159       -0.191      331   
   1129.621  523.856   -5.252   0.263       -0.574      -0.390      332   
   1287.443  528.604   -4.905   0.567       0.401       -0.815      333   
   1297.573  523.504   -5.373   0.231       -0.854      -0.285      334   
   1808.841  523.353   -5.802   0.299       -0.089      -0.114      335   
   1122.457  528.257   -4.760   0.270       -0.340      0.068       336   
   1665.219  527.322   -5.635   0.230       0.043       0.380       337   
   1192.869  526.286   -5.488   0.362       -0.213      0.213       338   
   1897.986  526.280   -5.796   0.206       -0.318      -0.299      339   
   998.889   528.380   -5.317   0.457       -0.226      0.442       340   
   1147.407  528.129   -5.141   0.269       -0.293      -0.207      341   
   1150.860  528.047   -5.053   0.296       -0.584      0.208       342   
   233.011   529.091   -5.711   0.279       -0.204      0.938       343   
   689.092   530.223   -4.904   0.359       0.215       -0.981      344   
   1848.892  534.490   -4.935   0.263       -0.093      -0.636      345   
   1023.785  534.215   -4.734   0.302       -0.208      -0.692      346   
   1056.395  532.156   -5.428   0.220       -0.568      -0.001      347   
   1121.384  528.832   -4.799   0.329       0.134       0.232       348   
   804.675   535.383   -5.288   0.473       0.012       0.159       349   
   887.399   535.307   -5.638   0.273       -0.347      -0.117      350   
   1152.359  536.534   -4.998   0.332       -0.073      0.597       351   
   1454.263  538.078   -5.068   0.303       -0.004      0.092       352   
   744.343   541.505   -5.012   0.222       -0.332      0.045       353   
   1848.574  535.839   -4.942   0.241       -0.304      -0.535      354   
   1493.816  542.200   -5.763   0.259       -0.157      0.850       355   
   1191.806  544.194   -5.589   0.374       -0.136      0.058       356   
   1359.586  544.803   -5.473   0.251       -0.907      -0.485      357   
   779.401   545.994   -5.446   0.434       -0.300      -0.563      358   
   1455.388  542.100   -4.906   0.261       -0.231      -0.231      359   
   404.580   547.761   -5.529   0.212       -0.420      -0.022      360   
   536.523   548.039   -5.503   0.223       -0.423      -0.049      361   
   920.027   551.678   -5.404   0.451       0.130       -0.425      362   
   463.840   550.123   -5.658   0.267       -0.353      0.630       363   
   1246.799  549.655   -5.305   0.477       -0.169      0.647       364   
   233.071   551.515   -5.726   0.224       -0.394      -0.457      365   
   1341.858  555.030   -5.688   0.281       -0.413      0.127       366   
   1467.774  549.589   -5.002   0.268       -0.618      -0.039      367   
   477.146   555.384   -5.392   0.206       -0.085      0.036       368   
   1699.090  563.445   -5.785   0.227       -0.188      0.176       369   
   1567.059  559.250   -5.644   0.328       -0.356      0.567       370   
   940.965   560.190   -4.953   0.277       -0.160      -0.198      371   
   947.786   563.329   -4.912   0.305       -0.002      -0.180      372   
   799.128   562.003   -4.779   0.495       -0.128      0.736       373   
   1450.967  563.612   -5.564   0.372       -0.250      0.445       374   
   993.125   561.583   -5.555   0.321       -0.274      0.257       375   
   889.875   566.995   -5.686   0.290       -0.251      -0.060      376   
   839.045   565.068   -5.497   0.233       -0.139      0.101       377   
   1266.859  566.117   -5.341   0.377       -0.273      0.632       378   
   961.717   567.997   -5.267   0.226       -0.520      0.203       379   
   579.793   568.397   -5.394   0.368       -0.140      -0.241      380   
   1102.802  568.453   -5.515   0.389       -0.099      0.070       381   
   1348.994  567.918   -5.628   0.294       -0.135      -0.151      382   
   590.115   569.315   -4.838   0.639       0.584       -0.711      383   
   650.154   569.792   -5.591   0.262       -0.352      0.192       384   
   1018.675  571.698   -5.652   0.304       -0.394      0.373       385   
   720.465   569.810   -5.590   0.314       -0.505      0.087       386   
   862.572   572.337   -5.422   0.243       -0.390      -0.103      387   
   339.790   573.328   -5.677   0.247       -0.293      0.093       388   
   1982.470  573.333   -5.917   0.248       -0.289      0.442       389   
   596.422   574.101   -5.234   0.443       0.582       0.857       390   
   982.795   577.414   -5.534   0.254       -0.618      0.102       391   
   1356.943  575.275   -4.235   0.572       0.061       0.974       392   
   1027.949  575.781   -5.386   0.432       -0.133      -0.606      393   
   1161.533  578.426   -5.512   0.283       -0.411      0.152       394   
   832.416   579.042   -4.866   0.291       -0.212      0.105       395   
   948.387   579.301   -4.679   0.294       -0.035      -0.306      396   
   1079.804  577.120   -5.343   0.461       -0.147      -0.454      397   
   1816.397  576.864   -5.522   0.334       -0.069      -0.108      398   
   1123.460  571.613   -4.997   0.316       -0.364      -0.083      399   
   1049.041  580.025   -5.459   0.342       -0.417      -0.159      400   
   1364.461  581.142   -5.620   0.240       -0.240      -0.112      401   
   421.719   588.490   -4.882   0.252       -0.121      -0.461      402   
   1089.167  584.931   -5.338   0.263       -0.761      0.227       403   
   1107.260  587.095   -5.474   0.439       -0.314      0.995       404   
   1301.286  581.656   -5.576   0.233       -0.401      -0.042      405   
   348.110   587.433   -4.984   0.227       -0.076      0.304       406   
   822.083   583.336   -4.987   0.326       -0.073      0.408       407   
   916.612   587.347   -5.512   0.241       0.148       0.067       408   
   1038.688  584.312   -5.546   0.271       -0.561      -0.057      409   
   1354.431  590.234   -4.843   0.363       0.037       -0.512      410   
   1887.143  587.067   -5.742   0.292       -0.209      0.666       411   
   837.770   586.058   -5.292   0.315       0.519       -0.073      412   
   423.567   585.010   -4.886   0.276       -0.438      -0.491      413   
   760.990   591.274   -4.993   0.283       -0.031      0.178       414   
   853.000   588.997   -5.662   0.315       -0.417      -0.088      415   
   1435.985  588.262   -5.517   0.240       -0.549      0.047       416   
   1473.077  589.183   -5.611   0.225       -0.403      0.106       417   
   946.549   584.134   -4.933   0.342       -0.447      0.753       418   
   1145.941  602.470   -4.944   0.440       -0.124      -0.566      419   
   1161.806  598.917   -5.563   0.312       -0.201      -0.426      420   
   1357.325  591.655   -4.653   0.302       0.378       -0.050      421   
   717.747   597.052   -5.166   0.296       -0.823      -0.354      422   
   1071.865  600.597   -5.353   0.253       0.052       -0.339      423   
   439.165   597.824   -5.052   0.224       0.041       0.737       424   
   683.110   599.986   -5.518   0.384       -0.102      0.568       425   
   2006.635  597.012   -5.130   0.201       -0.568      0.094       426   
   1189.651  597.721   -5.591   0.286       -0.469      0.107       427   
   1121.913  603.869   -5.646   0.248       -0.232      -0.104      428   
   1357.869  597.781   -5.252   0.264       -0.017      -0.022      429   
   1234.590  602.981   -5.645   0.246       -0.222      -0.260      430   
   963.407   607.291   -5.180   0.323       -0.775      0.557       431   
   1374.476  609.334   -5.649   0.319       -0.304      0.050       432   
   438.586   601.044   -4.925   0.245       -0.282      -0.257      433   
   895.538   607.892   -5.226   0.481       -0.843      -0.488      434   
   1019.109  606.021   -4.484   0.548       -0.294      0.717       435   
   993.478   608.976   -4.867   0.305       -0.214      0.019       436   
   1158.344  609.739   -5.216   0.471       -0.596      -0.218      437   
   1408.949  613.924   -5.152   0.219       -0.242      -0.047      438   
   865.456   611.507   -5.340   0.247       -0.369      -0.042      439   
   1138.453  610.394   -5.382   0.263       0.138       0.048       440   
   714.005   610.996   -5.523   0.245       -0.383      0.091       441   
   823.117   612.288   -5.578   0.330       -0.175      0.368       442   
   1506.057  617.172   -5.774   0.252       -0.272      0.045       443   
   1086.203  612.844   -5.535   0.381       -0.156      0.340       444   
   992.824   610.612   -4.839   0.282       0.130       0.126       445   
   382.688   615.403   -5.021   0.226       -0.513      -0.188      446   
   384.448   618.232   -4.906   0.225       -0.225      0.213       447   
   1240.516  615.350   -5.687   0.273       -0.156      -0.014      448   
   882.710   617.959   -5.442   0.222       -0.560      -0.064      449   
   1161.146  620.023   -4.932   0.281       -0.028      -0.025      450   
   816.629   619.019   -5.377   0.418       -0.446      0.389       451   
   959.055   617.443   -4.743   0.366       0.554       0.736       452   
   2021.931  620.146   -5.796   0.217       -0.201      -0.489      453   
   1047.535  623.726   -4.739   0.339       -0.043      -0.238      454   
   1174.001  621.244   -4.441   0.667       0.187       -0.125      455   
   761.863   624.355   -5.482   0.234       -0.188      -0.015      456   
   1160.100  621.257   -4.912   0.344       -0.076      -0.044      457   
   742.663   624.786   -5.461   0.347       -0.174      0.326       458   
   1317.670  624.915   -5.735   0.254       -0.195      0.348       459   
   1521.670  621.628   -5.013   0.269       -0.507      0.220       460   
   901.630   626.069   -5.401   0.378       -0.180      0.157       461   
   1011.827  631.162   -4.945   0.560       -0.709      -0.081      462   
   1488.008  627.368   -5.413   0.203       -0.426      -0.004      463   
   798.830   630.759   -5.113   0.216       -0.502      -0.241      464   
   1051.962  629.052   -4.943   0.262       0.151       0.064       465   
   1181.136  629.848   -5.524   0.325       -0.038      0.012       466   
   1226.364  632.290   -4.935   0.355       -0.149      -0.551      467   
   1334.228  630.922   -5.049   0.386       -0.019      0.667       468   
   1960.286  629.686   -5.655   0.201       -0.404      0.066       469   
   1035.364  635.910   -5.575   0.246       -0.173      -0.085      470   
   1157.322  641.972   -4.849   0.350       -0.097      -0.250      471   
   537.240   639.194   -5.051   0.221       -0.522      0.395       472   
   832.962   640.998   -5.359   0.478       -0.148      -0.540      473   
   1933.114  636.781   -5.731   0.215       -0.365      0.134       474   
   869.644   641.388   -5.542   0.248       -0.349      0.036       475   
   1047.370  643.116   -5.250   0.386       -0.442      -0.177      476   
   204.882   644.167   -5.766   0.219       -0.195      0.596       477   
   1196.243  644.723   -5.278   0.241       -0.438      0.117       478   
   1219.831  642.811   -4.853   0.312       -0.435      -0.014      479   
   1414.966  645.127   -5.474   0.227       -0.419      -0.011      480   
   1601.985  641.922   -5.600   0.297       -0.347      -0.050      481   
   1081.422  646.308   -5.300   0.322       -0.603      -0.148      482   
   669.601   648.469   -5.299   0.213       -0.383      -0.036      483   
   1155.218  645.125   -4.903   0.347       -0.002      0.100       484   
   1471.339  649.363   -5.689   0.280       -0.345      0.139       485   
   889.069   650.084   -5.135   0.521       -0.195      -0.088      486   
   824.268   650.946   -5.356   0.259       -0.325      -0.596      487   
   1138.114  651.262   -5.343   0.211       -0.589      0.099       488   
   544.412   654.837   -4.938   0.229       -0.138      -0.032      489   
   1300.610  650.659   -5.432   0.372       -0.000      0.004       490   
   1115.766  656.657   -5.171   0.294       -0.189      0.220       491   
   1273.027  653.257   -5.121   0.553       -0.779      0.787       492   
   1092.572  654.288   -5.528   0.308       -0.598      -0.103      493   
   1753.936  654.059   -5.567   0.218       -0.379      0.060       494   
   923.404   658.347   -5.007   0.321       -0.427      -0.124      495   
   958.399   660.895   -5.657   0.285       -0.245      -0.024      496   
   1061.068  656.862   -5.373   0.254       -0.678      0.096       497   
   1219.202  656.980   -4.903   0.597       -0.275      -0.461      498   
   1486.681  658.435   -5.146   0.243       0.326       -0.235      499   
   1081.698  658.353   -4.949   0.596       -0.162      0.272       500   
   1158.015  658.919   -3.919   0.611       -0.134      -0.491      501   
   1306.307  657.103   -5.588   0.321       -0.251      0.082       502   
   885.505   660.571   -5.334   0.415       -0.193      -0.032      503   
   1491.146  659.044   -4.999   0.267       0.030       0.354       504   
   921.278   659.734   -4.943   0.294       -0.378      0.519       505   
   1164.049  665.821   -5.007   0.589       -0.112      0.328       506   
   1099.310  666.946   -5.190   0.505       -0.480      -0.131      507   
   1248.679  668.383   -5.222   0.239       -0.053      0.415       508   
   1459.672  670.019   -5.737   0.264       -0.209      -0.029      509   
   1469.932  666.588   -5.576   0.351       -0.194      -0.368      510   
   215.418   678.468   -5.010   0.214       -0.237      0.088       511   
   1080.500  671.663   -5.520   0.268       -0.477      0.140       512   
   705.160   673.700   -5.632   0.252       -0.474      0.277       513   
   1286.017  677.916   -5.144   0.279       0.181       0.258       514   
   686.151   676.989   -5.650   0.272       -0.287      0.300       515   
   1144.608  676.121   -5.458   0.244       -0.977      0.080       516   
   651.728   679.279   -5.418   0.348       0.088       -0.154      517   
   745.390   680.554   -5.496   0.271       -0.523      0.021       518   
   790.342   680.016   -5.362   0.397       -0.193      0.753       519   
   1033.006  680.215   -4.678   0.473       0.079       0.549       520   
   1228.701  679.950   -5.544   0.371       -0.116      -0.331      521   
   1431.555  684.416   -5.439   0.239       -0.614      -0.043      522   
   1469.161  679.854   -5.517   0.347       -0.236      -0.720      523   
   1207.242  682.060   -4.876   0.366       0.690       -0.017      524   
   35.250    686.253   -5.553   0.307       0.286       0.113       525   
   905.288   679.389   -5.117   0.250       -0.323      0.275       526   
   1117.983  684.102   -5.249   0.232       -0.551      -0.016      527   
   1247.424  682.021   -5.304   0.466       -0.128      -0.603      528   
   1308.462  684.816   -5.051   0.278       -0.430      0.221       529   
   1652.676  685.408   -5.197   0.208       -0.343      0.005       530   
   1260.506  679.582   -4.909   0.307       -0.060      -0.134      531   
   877.483   688.213   -5.245   0.215       -0.416      0.119       532   
   1073.570  686.890   -5.292   0.246       -0.313      0.125       533   
   1095.060  690.208   -5.217   0.316       0.186       0.710       534   
   1500.943  689.190   -5.684   0.254       -0.079      0.670       535   
   1540.358  686.528   -5.117   0.213       -0.543      0.056       536   
   617.953   693.037   -5.087   0.214       0.012       -0.115      537   
   1421.990  686.567   -4.897   0.239       -0.031      0.077       538   
   1113.580  691.278   -5.321   0.339       -0.834      0.207       539   
   972.318   687.352   -5.424   0.389       -0.325      -0.031      540   
   1052.932  692.453   -5.250   0.379       -0.073      0.184       541   
   637.121   695.253   -5.491   0.261       -0.463      -0.059      542   
   764.981   690.951   -5.633   0.284       -0.113      0.044       543   
   1204.926  697.531   -5.210   0.235       -0.541      -0.137      544   
   1094.485  694.973   -5.001   0.252       -0.422      0.010       545   
   1789.384  697.208   -5.055   0.505       -0.449      0.830       546   
   531.372   701.622   -5.412   0.225       -0.385      0.030       547   
   700.065   698.199   -5.521   0.303       -0.663      0.432       548   
   1632.199  702.220   -5.002   0.251       -0.139      -0.332      549   
   949.931   700.760   -5.452   0.245       -0.320      -0.053      550   
   1068.584  701.787   -4.733   0.362       0.068       0.768       551   
   1073.905  700.732   -4.737   0.276       -0.107      0.880       552   
   194.944   702.123   -5.718   0.216       -0.282      0.495       553   
   1258.125  704.150   -5.289   0.519       -0.433      -0.098      554   
   931.550   703.160   -5.634   0.299       -0.086      0.424       555   
   967.363   698.178   -5.503   0.318       -0.376      0.074       556   
   1684.217  703.183   -5.745   0.248       -0.249      0.292       557   
   717.970   704.037   -5.530   0.307       -0.305      -0.239      558   
   1195.849  701.755   -5.225   0.350       -0.626      -0.732      559   
   1431.441  710.461   -4.877   0.334       0.119       0.380       560   
   1271.329  708.425   -5.421   0.236       -0.596      -0.061      561   
   841.845   705.960   -5.240   0.209       -0.422      0.252       562   
   1392.631  701.572   -5.153   0.265       -0.500      0.007       563   
   1631.072  703.529   -4.881   0.266       -0.148      -0.733      564   
   1265.660  713.150   -5.085   0.246       -0.280      -0.017      565   
   1433.736  710.619   -4.866   0.291       -0.093      -0.225      566   
   1678.794  714.356   -5.669   0.248       -0.264      0.325       567   
   724.000   715.955   -5.583   0.292       -0.613      -0.324      568   
   1756.425  719.703   -5.746   0.238       -0.377      0.181       569   
   831.100   719.107   -5.492   0.331       -0.266      0.096       570   
   689.869   719.334   -5.583   0.291       -0.262      -0.252      571   
   69.599    726.252   -5.279   0.204       -0.241      0.151       572   
   1370.141  720.536   -5.064   0.371       -0.938      -0.103      573   
   1072.795  723.082   -4.648   0.281       0.023       0.176       574   
   1991.868  716.887   -5.822   0.219       -0.184      0.288       575   
   812.844   724.692   -5.515   0.338       -0.007      -0.100      576   
   898.831   725.084   -5.238   0.436       0.702       0.107       577   
   1370.277  721.928   -5.136   0.227       -0.637      0.058       578   
   1783.626  728.538   -4.854   0.257       -0.090      -0.820      579   
   329.005   726.054   -5.583   0.215       -0.284      -0.016      580   
   1153.403  726.152   -5.429   0.364       -0.500      0.182       581   
   1223.218  723.119   -5.143   0.303       -0.607      0.244       582   
   826.940   727.741   -5.454   0.280       -0.492      0.107       583   
   1118.827  729.392   -5.123   0.480       -0.120      -0.857      584   
   1266.720  727.655   -5.521   0.238       -0.384      0.125       585   
   1389.620  732.371   -4.956   0.313       -0.046      0.260       586   
   1406.841  729.431   -5.170   0.565       -0.016      -0.158      587   
   1075.934  729.183   -4.613   0.354       -0.386      0.476       588   
   614.714   733.896   -5.459   0.221       -0.366      -0.079      589   
   906.903   733.056   -4.221   0.569       0.243       0.315       590   
   1784.557  730.673   -4.858   0.302       -0.450      -0.497      591   
   1903.065  733.977   -5.193   0.396       -0.633      0.050       592   
   799.831   735.477   -5.125   0.550       0.152       -0.530      593   
   955.481   736.037   -5.049   0.251       -0.372      -0.076      594   
   929.824   736.987   -5.230   0.423       -0.441      0.540       595   
   1571.752  738.051   -5.525   0.311       -0.269      0.055       596   
   884.299   739.244   -5.099   0.514       0.122       -0.376      597   
   434.184   744.288   -5.392   0.217       -0.625      -0.043      598   
   1625.588  740.121   -5.623   0.319       -0.271      0.234       599   
   1074.639  740.755   -4.658   0.360       -0.097      0.765       600   
   1448.116  741.489   -5.584   0.378       -0.402      0.225       601   
   242.917   744.863   -5.425   0.228       -0.384      -0.437      602   
   761.722   744.422   -4.696   0.304       0.053       -0.179      603   
   1067.988  743.541   -4.860   0.291       0.308       0.450       604   
   1902.101  742.558   -5.448   0.260       -0.682      0.269       605   
   950.963   743.238   -5.073   0.265       -0.912      0.239       606   
   1653.952  744.102   -5.608   0.216       -0.333      0.356       607   
   758.832   748.905   -4.693   0.280       -0.262      0.622       608   
   834.292   745.547   -5.553   0.276       -0.757      -0.064      609   
   959.975   746.897   -5.291   0.364       0.600       -0.075      610   
   1070.742  744.613   -4.639   0.292       -0.617      -0.504      611   
   527.299   748.087   -5.590   0.273       -0.228      -0.368      612   
   1099.385  746.887   -4.374   0.602       -0.735      -0.383      613   
   1289.610  749.107   -5.619   0.257       -0.286      0.001       614   
   796.552   752.185   -4.970   0.303       -0.204      0.077       615   
   874.398   750.354   -5.326   0.265       0.060       0.009       616   
   1017.508  754.461   -5.367   0.347       -0.371      0.218       617   
   759.361   750.461   -4.725   0.312       0.160       -0.261      618   
   882.563   756.022   -4.767   0.339       -0.524      -0.492      619   
   1092.200  754.237   -4.563   0.656       0.196       -0.353      620   
   946.381   753.838   -5.458   0.253       -0.473      0.293       621   
   460.901   759.292   -4.902   0.257       0.100       0.015       622   
   796.837   751.081   -4.917   0.263       -0.236      -0.442      623   
   1078.473  755.572   -5.166   0.545       -0.427      -0.443      624   
   1627.085  756.842   -5.680   0.257       -0.248      0.338       625   
   1066.006  761.428   -4.652   0.296       0.033       -0.060      626   
   1569.874  762.507   -5.626   0.324       -0.365      -0.202      627   
   460.585   757.414   -4.765   0.273       -0.113      -0.206      628   
   1097.436  763.972   -4.958   0.506       -0.134      0.862       629   
   1007.059  765.275   -5.273   0.223       -0.236      0.267       630   
   622.744   766.950   -5.613   0.290       -0.377      0.021       631   
   741.953   763.410   -5.409   0.392       -0.550      -0.854      632   
   894.649   766.060   -4.561   0.228       0.427       -0.129      633   
   1356.121  769.268   -4.847   0.382       0.134       0.113       634   
   1795.005  767.174   -5.707   0.207       -0.259      -0.516      635   
   832.072   767.632   -5.503   0.299       0.514       0.237       636   
   390.976   763.931   -5.138   0.244       -0.475      0.296       637   
   885.006   768.503   -4.832   0.342       0.379       0.307       638   
   1079.423  772.357   -4.849   0.321       0.191       -0.375      639   
   130.484   775.265   -4.890   0.212       -0.259      -0.178      640   
   1098.732  770.762   -5.227   0.328       0.171       -0.111      641   
   942.793   774.819   -5.327   0.423       -0.323      0.044       642   
   375.566   773.665   -5.428   0.304       -0.350      0.339       643   
   962.743   777.064   -5.135   0.420       -0.487      0.276       644   
   1117.332  775.846   -5.016   0.498       0.672       -0.302      645   
   1015.978  776.071   -4.302   0.521       0.254       -0.608      646   
   1067.081  772.010   -4.650   0.329       0.345       0.006       647   
   1107.866  774.862   -5.346   0.331       0.212       -0.342      648   
   1356.387  771.807   -4.756   0.326       0.167       -0.409      649   
   950.432   776.910   -4.691   0.576       0.110       -0.018      650   
   131.999   775.199   -4.832   0.356       -0.958      -0.404      651   
   714.242   779.654   -5.621   0.278       -0.184      -0.407      652   
   1290.810  781.149   -5.676   0.261       -0.495      -0.005      653   
   374.438   778.335   -5.401   0.248       -0.672      0.125       654   
   1308.227  777.536   -5.506   0.338       -0.264      0.237       655   
   532.940   787.493   -5.560   0.244       -0.495      0.018       656   
   607.015   786.375   -5.307   0.472       -0.300      -0.147      657   
   862.967   787.869   -5.388   0.234       -0.315      0.148       658   
   969.648   789.314   -5.244   0.241       -0.424      0.009       659   
   1496.076  787.727   -5.502   0.259       -0.499      -0.646      660   
   958.164   786.663   -4.993   0.307       -0.402      0.535       661   
   1076.441  789.563   -5.081   0.439       -0.667      0.694       662   
   1349.736  791.442   -5.261   0.445       -0.686      0.146       663   
   679.280   791.949   -5.603   0.282       -0.387      -0.190      664   
   873.767   794.007   -5.290   0.228       -0.565      0.009       665   
   1091.910  796.350   -5.353   0.427       -0.364      0.188       666   
   1171.953  794.106   -5.217   0.526       -0.583      0.790       667   
   1764.401  796.750   -5.693   0.208       -0.281      0.085       668   
   613.115   794.007   -5.652   0.278       -0.289      -0.213      669   
   994.085   797.506   -5.302   0.406       -0.656      0.302       670   
   463.497   800.531   -5.242   0.234       -0.639      -0.181      671   
   1058.421  799.058   -4.012   0.546       0.713       0.075       672   
   1124.385  798.805   -5.454   0.277       -0.054      -0.007      673   
   934.255   803.027   -4.902   0.572       0.132       -0.183      674   
   1015.530  802.999   -5.590   0.252       -0.658      0.050       675   
   808.747   802.255   -5.373   0.386       -0.046      0.508       676   
   944.624   802.960   -5.341   0.272       -0.835      0.196       677   
   971.596   802.438   -5.354   0.420       -0.010      -0.195      678   
   870.684   804.871   -4.751   0.480       -0.034      0.518       679   
   1045.316  805.971   -5.065   0.309       -0.536      0.249       680   
   844.816   806.044   -5.309   0.337       -0.930      -0.565      681   
   886.609   807.826   -4.424   0.336       0.467       -0.077      682   
   1351.538  807.726   -5.066   0.233       -0.121      -0.169      683   
   991.174   809.668   -5.005   0.272       -0.338      0.193       684   
   856.491   806.856   -5.348   0.336       -0.557      -0.216      685   
   1089.806  815.196   -5.351   0.431       -0.177      -0.403      686   
   1331.771  810.551   -5.378   0.211       -0.379      0.065       687   
   679.694   813.904   -4.686   0.292       0.422       -0.787      688   
   962.711   807.661   -5.118   0.395       -0.216      -0.052      689   
   1237.793  811.227   -5.501   0.403       -0.087      0.622       690   
   889.951   813.077   -4.891   0.263       0.269       -0.937      691   
   1159.049  812.080   -4.581   0.662       0.418       -0.318      692   
   1042.311  814.759   -4.737   0.399       0.231       0.787       693   
   1179.765  813.727   -5.464   0.295       -0.678      0.126       694   
   1379.093  816.724   -5.621   0.273       -0.175      -0.122      695   
   1147.072  811.657   -5.205   0.283       -0.087      0.214       696   
   1025.974  815.960   -4.185   0.489       0.407       0.550       697   
   475.650   818.424   -5.421   0.217       -0.478      -0.067      698   
   684.833   817.793   -5.043   0.244       -0.055      -0.171      699   
   1053.531  817.962   -5.339   0.324       0.105       -0.528      700   
   881.687   815.868   -4.147   0.337       -0.493      0.387       701   
   1094.075  820.377   -5.253   0.225       -0.534      0.082       702   
   1407.810  823.482   -4.911   0.327       -0.205      -0.054      703   
   1437.109  816.688   -5.150   0.259       -0.655      0.151       704   
   524.847   822.936   -5.559   0.272       -0.335      0.274       705   
   1157.932  821.198   -5.388   0.315       -0.868      0.064       706   
   1708.721  823.210   -5.738   0.233       -0.306      0.613       707   
   434.994   824.261   -5.683   0.234       -0.318      -0.122      708   
   990.281   819.742   -4.696   0.293       0.623       0.174       709   
   1002.169  825.970   -4.766   0.301       -0.399      0.330       710   
   1125.052  823.679   -5.590   0.292       -0.310      -0.147      711   
   749.381   826.031   -5.565   0.338       -0.496      0.423       712   
   637.009   827.202   -5.546   0.325       -0.059      0.211       713   
   771.534   827.330   -5.545   0.238       -0.147      -0.070      714   
   875.769   830.104   -4.905   0.223       0.381       0.224       715   
   1300.137  831.810   -5.008   0.256       -0.446      -0.140      716   
   669.959   838.058   -5.000   0.599       -0.759      -0.325      717   
   1059.731  832.622   -5.097   0.263       -0.628      0.093       718   
   1291.960  834.503   -4.884   0.343       0.451       -0.092      719   
   1148.146  835.634   -5.457   0.244       -0.664      -0.311      720   
   681.947   829.917   -5.087   0.449       0.141       0.356       721   
   1392.961  831.195   -4.904   0.290       -0.286      0.348       722   
   877.763   832.247   -4.857   0.262       -0.113      -0.187      723   
   544.714   837.821   -5.465   0.238       -0.843      0.029       724   
   1080.169  837.316   -5.445   0.388       -0.171      0.062       725   
   1181.656  840.351   -4.641   0.387       -0.846      0.379       726   
   1373.951  838.349   -5.648   0.316       -0.487      -0.053      727   
   1468.536  837.839   -5.591   0.335       -0.266      -0.521      728   
   143.375   840.143   -5.675   0.260       -0.188      0.261       729   
   816.749   840.267   -5.248   0.493       -0.018      0.135       730   
   1043.122  836.763   -4.627   0.626       -0.943      -0.378      731   
   1344.246  843.417   -5.132   0.270       -0.121      -0.042      732   
   888.406   842.191   -5.186   0.317       0.459       0.148       733   
   926.000   841.650   -4.892   0.337       0.239       -0.664      734   
   927.230   841.854   -4.881   0.288       -0.174      0.301       735   
   1110.027  844.012   -3.886   0.656       -0.180      -0.774      736   
   493.009   842.342   -5.534   0.281       -0.115      -0.780      737   
   796.434   842.305   -5.407   0.417       -0.003      0.358       738   
   784.052   843.033   -5.204   0.499       0.229       0.095       739   
   957.880   843.326   -4.925   0.556       -0.417      0.233       740   
   1297.724  843.215   -4.564   0.325       0.496       0.884       741   
   1386.600  844.104   -5.530   0.249       -0.427      -0.267      742   
   711.497   844.657   -5.414   0.231       -0.185      0.285       743   
   902.528   845.584   -5.300   0.234       -0.524      -0.290      744   
   615.790   842.902   -5.593   0.298       -0.409      0.492       745   
   674.020   845.921   -4.185   0.472       -0.041      -0.146      746   
   837.546   848.396   -4.943   0.292       -0.184      0.404       747   
   1328.061  849.039   -5.255   0.251       -0.422      0.468       748   
   892.790   846.721   -4.980   0.362       0.218       -0.456      749   
   1159.378  849.574   -5.022   0.209       -0.588      -0.155      750   
   1177.984  845.105   -4.799   0.365       0.060       0.007       751   
   1015.883  849.543   -5.404   0.292       -0.661      -0.714      752   
   766.779   853.454   -5.085   0.233       -0.565      -0.098      753   
   836.461   849.377   -4.877   0.313       -0.266      -0.342      754   
   483.122   851.949   -5.617   0.309       -0.227      0.782       755   
   1111.426  852.174   -5.534   0.341       -0.021      -0.209      756   
   1193.404  854.017   -5.519   0.294       -0.650      0.082       757   
   1573.463  853.454   -5.505   0.341       0.218       -0.530      758   
   438.748   854.320   -5.681   0.234       -0.332      0.190       759   
   1039.057  854.873   -3.781   0.645       -0.209      -1.000      760   
   2003.581  861.391   -5.697   0.207       -0.273      -0.569      761   
   714.808   851.591   -5.479   0.247       -0.235      0.386       762   
   755.295   851.242   -5.090   0.317       -0.834      -0.115      763   
   797.570   860.535   -5.642   0.281       -0.172      -0.114      764   
   967.370   857.992   -5.105   0.213       -0.223      0.168       765   
   633.136   855.995   -5.564   0.228       -0.141      0.058       766   
   1219.996  860.418   -5.038   0.288       -0.270      0.063       767   
   1289.255  858.256   -5.284   0.245       -0.787      0.061       768   
   1068.930  861.402   -4.965   0.292       0.216       0.009       769   
   1388.207  858.587   -5.472   0.222       -0.429      0.035       770   
   678.929   860.932   -5.240   0.465       -0.042      0.154       771   
   1859.928  855.655   -5.032   0.253       -0.494      0.062       772   
   68.693    861.803   -5.663   0.265       -0.217      0.515       773   
   1331.131  862.796   -4.751   0.424       -0.625      -0.183      774   
   949.056   863.467   -5.408   0.267       -0.491      0.027       775   
   809.099   869.788   -5.511   0.260       -0.289      0.216       776   
   1034.785  864.949   -5.491   0.387       -0.182      0.410       777   
   1254.842  866.946   -5.073   0.268       -0.411      -0.024      778   
   832.282   867.626   -5.166   0.212       -0.522      0.015       779   
   992.422   868.968   -5.398   0.223       0.209       -0.139      780   
   1779.359  869.082   -5.718   0.286       -0.102      0.525       781   
   1011.078  871.730   -5.452   0.226       -0.393      0.059       782   
   845.550   874.024   -5.048   0.253       -0.189      -0.009      783   
   1441.249  875.195   -4.823   0.274       -0.424      -0.778      784   
   643.109   872.743   -5.501   0.370       -0.141      -0.716      785   
   1086.741  871.672   -5.546   0.313       -0.202      -0.224      786   
   757.817   872.091   -5.590   0.263       -0.307      -0.026      787   
   802.462   875.485   -5.461   0.244       -0.722      -0.178      788   
   1206.795  874.421   -5.324   0.282       -0.391      -0.510      789   
   1358.613  875.916   -4.912   0.216       0.052       -0.538      790   
   264.963   875.029   -5.812   0.231       -0.194      0.211       791   
   1353.269  873.550   -5.123   0.241       -0.476      -0.203      792   
   538.259   877.073   -5.216   0.246       -0.734      -0.476      793   
   819.262   876.061   -4.895   0.553       -0.140      0.483       794   
   904.245   875.133   -5.553   0.234       -0.583      -0.063      795   
   963.196   875.894   -4.631   0.389       -0.007      -0.841      796   
   1185.196  876.805   -4.776   0.616       0.111       -0.281      797   
   1313.782  875.826   -5.458   0.408       -0.194      0.134       798   
   1369.570  878.408   -5.330   0.234       0.145       -0.282      799   
   1593.466  876.919   -5.231   0.204       -0.546      0.082       800   
   1291.618  878.972   -5.156   0.210       0.043       0.322       801   
   963.959   878.526   -4.595   0.391       0.251       -0.368      802   
   1444.658  882.846   -4.768   0.218       0.039       0.963       803   
   1176.089  891.212   -4.886   0.345       -0.289      0.179       804   
   1485.782  884.590   -5.607   0.235       -0.311      0.115       805   
   828.610   886.040   -5.543   0.245       -0.365      -0.017      806   
   998.190   886.022   -4.796   0.424       -0.268      -0.380      807   
   1126.191  886.623   -5.056   0.266       -0.857      -0.563      808   
   1225.121  890.044   -4.983   0.281       0.208       0.133       809   
   1424.981  889.156   -5.061   0.593       0.272       -0.956      810   
   172.052   891.158   -5.770   0.285       -0.100      0.084       811   
   1138.437  893.837   -5.012   0.265       -0.232      -0.095      812   
   1174.569  889.358   -5.049   0.296       -0.453      0.051       813   
   860.168   895.261   -4.607   0.388       -0.441      -0.383      814   
   1058.168  892.424   -5.058   0.530       -0.256      -0.394      815   
   1458.199  899.377   -5.746   0.288       -0.246      0.976       816   
   1223.917  889.513   -4.837   0.332       -0.014      -0.171      817   
   1541.969  897.744   -5.131   0.206       -0.211      0.156       818   
   878.087   895.655   -5.389   0.236       -0.634      -0.195      819   
   1045.837  897.228   -5.063   0.248       -0.124      -0.023      820   
   1430.797  892.853   -5.519   0.276       -0.094      0.087       821   
   523.277   903.223   -5.676   0.303       -0.217      0.167       822   
   865.321   898.390   -4.460   0.268       -0.162      0.201       823   
   934.653   899.141   -5.258   0.234       -0.703      0.314       824   
   1283.330  903.811   -5.589   0.271       -0.436      0.345       825   
   1195.089  903.286   -4.794   0.291       0.214       -0.170      826   
   956.305   903.073   -5.194   0.540       0.076       0.228       827   
   992.790   903.155   -5.521   0.311       -0.538      -0.353      828   
   1376.370  898.251   -5.650   0.291       -0.314      0.178       829   
   858.354   903.335   -4.672   0.396       0.217       0.068       830   
   1182.671  907.306   -5.381   0.368       -0.549      -0.040      831   
   873.975   912.178   -5.214   0.511       -0.389      -0.169      832   
   1068.146  909.656   -5.453   0.227       -0.335      -0.045      833   
   1193.952  906.270   -4.818   0.278       0.329       0.158       834   
   1729.003  907.501   -5.473   0.272       0.545       -0.260      835   
   1421.108  913.379   -4.831   0.305       0.140       0.335       836   
   637.046   913.184   -5.704   0.291       -0.226      -0.296      837   
   1258.922  913.937   -5.124   0.465       -0.586      -0.132      838   
   1368.451  914.175   -5.092   0.511       -0.306      -0.162      839   
   810.811   914.088   -5.405   0.298       -0.385      0.385       840   
   720.249   918.136   -5.248   0.355       -0.973      -0.231      841   
   1423.902  914.686   -4.734   0.309       -0.080      -0.451      842   
   833.036   923.351   -5.374   0.387       0.370       0.024       843   
   903.261   921.960   -5.568   0.250       -0.358      -0.130      844   
   1207.457  922.704   -5.569   0.236       -0.325      -0.077      845   
   558.234   918.020   -5.121   0.228       0.305       -0.336      846   
   919.834   927.372   -5.078   0.212       -0.146      0.035       847   
   1162.144  922.318   -5.597   0.296       -0.285      -0.458      848   
   1258.274  925.849   -4.618   0.553       0.522       0.900       849   
   1512.990  927.445   -5.751   0.273       -0.229      -0.326      850   
   1175.722  931.080   -5.610   0.277       -0.328      -0.090      851   
   1244.604  927.122   -5.249   0.249       -0.492      0.428       852   
   1192.545  929.698   -5.299   0.211       -0.463      0.185       853   
   1370.472  929.788   -5.222   0.220       -0.212      0.071       854   
   685.725   930.174   -5.495   0.342       0.071       0.229       855   
   689.520   931.524   -5.464   0.245       0.193       0.096       856   
   1043.240  931.518   -5.532   0.311       -0.327      -0.162      857   
   662.445   931.037   -4.743   0.278       -0.122      0.990       858   
   843.354   929.594   -5.528   0.345       -0.303      0.128       859   
   927.238   931.811   -5.356   0.256       -0.146      -0.176      860   
   1332.842  932.697   -5.565   0.376       -0.135      -0.479      861   
   957.120   935.010   -5.512   0.339       -0.210      -0.151      862   
   1230.480  936.865   -5.408   0.241       -0.334      0.188       863   
   1292.375  934.027   -5.364   0.322       -0.874      -0.241      864   
   1393.181  933.810   -5.152   0.270       -0.469      0.646       865   
   7.502     937.025   -5.075   0.230       -0.308      -0.032      866   
   661.888   934.764   -4.663   0.323       0.226       -0.559      867   
   1102.719  937.957   -5.326   0.378       -0.231      0.471       868   
   1075.056  937.186   -5.513   0.353       -0.467      -0.122      869   
   1259.424  937.885   -4.819   0.242       -0.047      -0.161      870   
   1546.421  938.595   -5.511   0.219       -0.477      0.076       871   
   873.114   948.456   -4.263   0.362       -0.225      0.144       872   
   1292.899  942.767   -5.368   0.244       -0.842      0.011       873   
   1390.970  938.406   -5.171   0.258       -0.524      0.139       874   
   1643.680  941.469   -5.623   0.306       -0.263      -0.140      875   
   1025.023  942.174   -5.208   0.362       0.083       0.819       876   
   1433.773  942.970   -5.665   0.292       0.009       -0.156      877   
   1004.469  946.272   -4.810   0.318       0.032       -0.268      878   
   1034.516  947.584   -5.244   0.536       -0.106      -0.632      879   
   1141.291  946.965   -5.170   0.242       -0.222      -0.151      880   
   692.446   944.695   -5.321   0.483       -0.071      0.022       881   
   859.703   946.138   -5.241   0.498       -0.308      0.746       882   
   812.695   947.412   -5.057   0.531       -0.219      0.887       883   
   891.729   951.196   -4.910   0.276       -0.153      -0.471      884   
   944.768   947.843   -5.019   0.548       0.093       -0.549      885   
   344.705   948.987   -5.212   0.341       -0.392      0.018       886   
   826.269   949.930   -5.196   0.260       -0.537      0.128       887   
   1005.059  946.090   -4.969   0.301       -0.098      0.268       888   
   1024.983  952.771   -4.791   0.307       0.092       0.396       889   
   1750.031  954.193   -5.646   0.347       -0.005      0.584       890   
   1262.245  956.581   -4.968   0.269       0.401       0.173       891   
   727.569   958.790   -5.519   0.235       -0.401      -0.045      892   
   1347.917  956.084   -5.453   0.328       -0.154      -0.666      893   
   594.148   957.297   -5.510   0.387       -0.100      0.484       894   
   1357.528  962.680   -4.969   0.314       0.528       0.403       895   
   1019.117  961.411   -5.362   0.272       -0.812      -0.032      896   
   1482.881  962.759   -5.378   0.214       -0.436      0.137       897   
   755.349   969.469   -4.813   0.303       -0.207      -0.412      898   
   815.486   966.646   -5.393   0.341       0.434       0.028       899   
   1052.918  967.087   -5.461   0.443       -0.166      0.552       900   
   1170.056  966.874   -5.346   0.224       -0.184      0.137       901   
   418.738   974.707   -4.661   0.217       0.069       -0.737      902   
   754.201   964.906   -4.805   0.273       -0.091      0.602       903   
   1010.682  970.932   -5.477   0.364       -0.107      -0.197      904   
   559.224   971.786   -5.605   0.260       -0.290      0.416       905   
   819.442   975.683   -5.434   0.366       -0.205      -0.231      906   
   1256.032  974.082   -4.973   0.270       -0.364      -0.007      907   
   1700.310  966.333   -5.695   0.252       -0.221      0.285       908   
   941.948   973.198   -5.231   0.415       -0.894      -0.447      909   
   1358.737  970.044   -4.728   0.302       0.644       0.364       910   
   467.177   976.902   -5.011   0.226       -0.892      0.168       911   
   837.872   972.788   -5.480   0.300       -0.544      -0.305      912   
   1081.368  975.704   -5.318   0.214       -0.180      0.289       913   
   1319.864  977.510   -5.285   0.452       -0.055      0.394       914   
   1254.683  975.895   -4.960   0.297       0.089       0.295       915   
   1278.058  982.175   -5.551   0.301       -0.064      -0.385      916   
   676.334   983.278   -4.877   0.307       0.055       -0.044      917   
   1063.217  979.077   -5.296   0.507       -0.418      0.616       918   
   420.513   975.628   -4.757   0.305       -0.283      -0.632      919   
   1230.371  981.366   -5.568   0.232       -0.454      -0.138      920   
   1148.348  982.068   -5.329   0.273       -0.773      -0.667      921   
   261.182   981.529   -4.989   0.289       -0.437      -0.009      922   
   310.216   988.351   -5.282   0.294       -1.000      -0.940      923   
   829.793   985.140   -4.971   0.272       -0.272      -0.208      924   
   1244.698  988.924   -5.549   0.360       0.073       0.685       925   
   232.987   991.070   -5.645   0.224       -0.326      -0.063      926   
   777.028   991.412   -5.069   0.533       -0.211      0.601       927   
   919.316   994.583   -4.970   0.276       -0.869      0.288       928   
   1053.521  997.441   -4.937   0.306       -0.173      -0.282      929   
   1510.850  997.871   -5.159   0.219       -0.255      -0.001      930   
   1743.868  993.922   -5.837   0.254       -0.316      0.109       931   
   887.304   998.118   -5.278   0.288       -0.952      -0.768      932   
   207.640   990.685   -4.841   0.230       -0.407      -0.277      933   
   1357.955  998.683   -4.953   0.342       -0.306      0.133       934   
   1003.886  998.143   -4.875   0.616       0.160       -0.667      935   
   1375.343  1001.455  -4.988   0.267       -0.371      -0.118      936   
   773.585   1002.373  -5.499   0.253       -0.310      -0.035      937   
   793.450   1005.750  -5.497   0.257       -0.528      -0.262      938   
   1357.034  1000.775  -4.998   0.268       -0.173      0.065       939   
   635.589   1009.993  -5.150   0.216       -0.157      0.120       940   
   1085.011  1008.323  -5.457   0.410       -0.317      -0.719      941   
   1008.819  1007.226  -5.044   0.240       -0.528      0.089       942   
   918.566   1010.652  -5.168   0.487       0.157       0.204       943   
   1214.060  1010.989  -4.829   0.561       -0.499      -0.291      944   
   885.458   1011.776  -5.357   0.453       -0.361      -0.457      945   
   953.307   1014.908  -4.854   0.281       0.030       -0.545      946   
   510.989   1012.873  -5.580   0.312       0.055       0.560       947   
   1062.892  1014.275  -4.926   0.308       -0.119      -0.546      948   
   1551.251  1013.724  -5.447   0.218       -0.364      0.114       949   
   255.911   1013.898  -5.586   0.262       -0.330      -0.122      950   
   1291.858  1015.702  -5.644   0.291       -0.534      -0.399      951   
   582.641   1018.461  -4.685   0.244       0.211       -0.824      952   
   1116.940  1017.631  -5.621   0.268       -0.291      0.110       953   
   1159.027  1018.305  -5.222   0.463       0.434       -0.419      954   
   931.873   1021.120  -4.884   0.355       -0.282      0.093       955   
   1076.059  1017.081  -5.164   0.346       0.791       -0.279      956   
   1201.830  1018.836  -4.660   0.688       -0.540      -0.185      957   
   531.231   1020.366  -5.723   0.232       -0.344      0.349       958   
   955.320   1016.380  -4.785   0.246       0.245       -0.057      959   
   730.938   1023.150  -5.549   0.262       -0.363      -0.078      960   
   931.463   1017.867  -4.672   0.327       0.208       0.408       961   
   1056.214  1022.882  -5.151   0.226       -0.607      0.170       962   
   1239.707  1019.942  -5.611   0.258       -0.121      -0.065      963   
   586.836   1020.350  -4.678   0.294       0.524       -0.241      964   
   666.039   1025.959  -5.659   0.274       -0.272      0.133       965   
   710.340   1025.955  -5.249   0.494       0.078       0.646       966   
   1451.833  1025.808  -5.724   0.226       -0.267      0.588       967   
   1327.144  1032.448  -5.648   0.265       -0.217      0.037       968   
   1402.183  1026.787  -5.613   0.254       -0.265      0.085       969   
   1197.134  1027.370  -5.293   0.279       0.209       0.731       970   
   644.533   1028.047  -5.482   0.221       -0.391      0.033       971   
   1526.997  1033.168  -5.746   0.235       -0.104      0.258       972   
   1136.061  1034.694  -5.410   0.421       -0.160      -0.394      973   
   724.953   1036.780  -4.876   0.542       0.230       0.244       974   
   1200.079  1034.686  -4.647   0.753       0.986       -0.232      975   
   1398.615  1044.162  -5.014   0.267       -0.248      -0.048      976   
   974.669   1040.464  -4.938   0.300       0.238       -0.047      977   
   1086.281  1043.522  -5.510   0.365       -0.282      -0.171      978   
   1623.711  1043.033  -5.674   0.275       -0.281      0.112       979   
   1636.974  1041.554  -5.518   0.214       -0.482      -0.124      980   
   1166.208  1038.921  -5.454   0.304       -0.637      0.001       981   
   1205.502  1043.118  -5.539   0.244       0.211       0.001       982   
   1223.181  1045.022  -5.635   0.233       -0.369      -0.449      983   
   1268.256  1050.855  -5.342   0.325       0.382       0.641       984   
   1673.155  1047.884  -5.744   0.214       -0.371      0.372       985   
   757.156   1052.980  -5.406   0.409       -0.399      0.011       986   
   1022.814  1049.837  -5.568   0.233       -0.384      0.284       987   
   973.957   1048.462  -4.910   0.286       -0.310      0.206       988   
   1586.979  1055.121  -5.637   0.248       -0.468      -0.565      989   
   1397.366  1049.775  -5.232   0.262       -0.277      0.451       990   
   803.154   1054.200  -5.391   0.423       -0.303      0.267       991   
   1258.812  1056.061  -5.345   0.467       0.117       0.561       992   
   1037.695  1058.863  -5.273   0.342       -0.049      0.888       993   
   993.620   1057.921  -5.372   0.240       -0.417      0.008       994   
   887.601   1060.801  -5.441   0.219       -0.386      0.014       995   
   915.032   1057.736  -5.134   0.227       -0.663      0.016       996   
   937.859   1063.252  -5.250   0.462       -0.322      0.607       997   
   607.992   1068.168  -5.625   0.334       0.016       0.352       998   
   1279.167  1068.448  -5.127   0.370       0.868       0.013       999   
   261.108   1074.074  -5.048   0.201       -0.362      -0.038      1000  
   843.285   1071.047  -5.195   0.404       0.949       0.216       1001  
   1158.827  1069.261  -5.547   0.247       -0.295      0.018       1002  
   1783.436  1072.184  -5.395   0.363       0.012       0.965       1003  
   725.332   1078.376  -5.130   0.231       -0.485      0.028       1004  
   1048.146  1068.964  -5.537   0.340       -0.221      -0.250      1005  
   1061.671  1078.999  -4.942   0.221       -0.059      0.126       1006  
   1281.867  1076.834  -5.184   0.247       0.403       0.705       1007  
   995.145   1078.385  -4.823   0.662       -0.045      -0.326      1008  
   816.682   1079.471  -4.878   0.514       -0.251      0.128       1009  
   828.113   1082.115  -5.142   0.227       -0.464      0.063       1010  
   953.994   1084.253  -5.125   0.538       -0.807      -0.665      1011  
   517.886   1087.776  -5.207   0.207       -0.321      0.075       1012  
   714.442   1083.487  -5.347   0.247       -0.736      -0.173      1013  
   1609.338  1084.146  -5.533   0.212       -0.469      0.001       1014  
   1067.555  1084.181  -4.934   0.351       0.338       -0.642      1015  
   905.971   1086.476  -5.060   0.425       -0.281      -0.835      1016  
   873.783   1091.989  -4.823   0.318       0.244       0.234       1017  
   990.288   1084.634  -5.558   0.263       -0.407      0.086       1018  
   57.368    1089.056  -5.651   0.203       -0.423      0.179       1019  
   2015.169  1089.142  -5.851   0.214       -0.213      0.540       1020  
   1126.900  1094.444  -5.405   0.224       -0.558      -0.025      1021  
   1286.739  1093.406  -5.189   0.222       -0.324      0.149       1022  
   1658.602  1095.125  -5.808   0.219       -0.158      0.293       1023  
   1072.215  1098.214  -4.834   0.266       -0.022      -0.050      1024  
   874.250   1093.201  -4.671   0.309       0.400       -0.294      1025  
   1224.509  1098.250  -5.316   0.228       -0.639      -0.089      1026  
   1073.465  1098.609  -4.778   0.247       -0.034      0.100       1027  
   1188.055  1107.795  -5.030   0.270       -0.242      0.259       1028  
   1274.609  1104.023  -5.294   0.211       -0.372      -0.050      1029  
   1515.330  1111.909  -5.672   0.245       -0.122      0.587       1030  
   1023.370  1107.897  -4.795   0.437       -0.562      0.185       1031  
   1177.098  1111.678  -5.401   0.308       -0.165      -0.691      1032  
   640.372   1113.568  -4.869   0.313       -0.599      0.213       1033  
   977.841   1110.046  -5.618   0.288       -0.143      -0.405      1034  
   1012.621  1110.823  -4.977   0.560       0.020       0.246       1035  
   334.096   1112.771  -4.832   0.439       -0.191      0.105       1036  
   1439.661  1117.266  -5.574   0.320       -0.311      0.243       1037  
   1506.129  1113.161  -5.026   0.265       -0.277      0.179       1038  
   1087.900  1115.824  -4.996   0.258       -0.178      0.222       1039  
   610.964   1116.558  -5.339   0.202       -0.347      -0.576      1040  
   725.156   1117.794  -5.492   0.211       -0.483      0.010       1041  
   243.940   1115.604  -5.706   0.223       -0.159      0.663       1042  
   640.168   1115.153  -4.786   0.330       -0.265      -0.489      1043  
   1121.235  1123.420  -5.387   0.234       -0.825      -0.093      1044  
   663.946   1123.676  -5.423   0.212       -0.295      0.078       1045  
   1298.867  1124.406  -5.428   0.235       -0.063      -0.022      1046  
   1343.833  1126.976  -5.152   0.229       -0.425      0.181       1047  
   693.453   1126.921  -5.125   0.234       -0.618      0.004       1048  
   1469.091  1127.000  -5.658   0.234       -0.314      0.105       1049  
   1092.680  1127.539  -5.454   0.318       0.278       -0.049      1050  
   1153.959  1132.933  -5.273   0.346       -0.637      0.133       1051  
   1217.899  1130.451  -5.550   0.338       -0.053      0.088       1052  
   1032.591  1130.828  -5.577   0.262       -0.357      -0.122      1053  
   628.249   1135.426  -4.943   0.269       -0.529      0.070       1054  
   829.004   1139.346  -5.508   0.251       -0.296      -0.128      1055  
   1375.939  1137.167  -4.855   0.244       0.199       0.492       1056  
   1449.789  1137.525  -4.940   0.225       -0.351      0.200       1057  
   642.602   1134.625  -5.396   0.213       -0.512      -0.073      1058  
   837.873   1135.358  -5.427   0.268       0.245       -0.324      1059  
   806.002   1139.415  -5.041   0.473       -0.256      -0.112      1060  
   965.898   1140.632  -5.040   0.252       -0.486      -0.016      1061  
   1421.237  1139.401  -5.693   0.248       -0.195      -0.457      1062  
   960.076   1141.899  -5.088   0.293       -0.711      -0.904      1063  
   1126.140  1145.122  -5.067   0.275       -0.363      -0.039      1064  
   1604.498  1141.215  -5.387   0.414       -0.117      0.137       1065  
   1376.376  1138.749  -4.807   0.309       -0.368      -0.273      1066  
   721.850   1147.995  -4.926   0.239       -0.157      -0.269      1067  
   1346.096  1145.009  -5.671   0.274       -0.271      0.349       1068  
   949.506   1146.759  -5.052   0.227       -0.332      0.153       1069  
   1298.860  1149.043  -5.557   0.248       -0.677      -0.112      1070  
   266.900   1150.946  -5.790   0.254       -0.212      0.938       1071  
   891.992   1153.413  -5.051   0.238       -0.873      -0.163      1072  
   968.783   1151.909  -5.496   0.248       -0.279      -0.076      1073  
   1423.742  1153.700  -5.487   0.218       -0.418      0.010       1074  
   721.410   1149.808  -4.935   0.276       -0.228      -0.188      1075  
   158.756   1155.321  -5.695   0.318       -0.042      -0.690      1076  
   454.665   1158.974  -4.777   0.272       0.287       -0.506      1077  
   1375.261  1153.086  -5.450   0.413       -0.243      -0.583      1078  
   1192.457  1154.161  -5.476   0.341       -0.591      0.498       1079  
   1588.937  1158.281  -5.674   0.225       -0.368      0.322       1080  
   1183.774  1161.135  -5.404   0.224       0.127       -0.033      1081  
   1014.119  1162.333  -5.566   0.357       0.094       0.360       1082  
   1156.106  1164.839  -5.415   0.441       -0.203      0.317       1083  
   455.682   1162.380  -4.723   0.321       0.101       -0.628      1084  
   1287.745  1165.827  -5.544   0.243       -0.728      0.168       1085  
   424.886   1169.505  -5.317   0.202       -0.359      0.092       1086  
   1340.680  1168.815  -5.695   0.262       -0.383      0.002       1087  
   902.336   1168.041  -5.593   0.255       -0.277      0.037       1088  
   1119.101  1174.198  -5.083   0.283       -0.021      -0.026      1089  
   1073.119  1177.116  -4.849   0.258       0.143       -0.441      1090  
   1311.114  1174.619  -5.060   0.421       -0.147      -0.522      1091  
   1119.976  1178.154  -5.013   0.273       0.502       0.230       1092  
   1179.712  1178.183  -5.424   0.229       -0.312      0.061       1093  
   1255.243  1178.340  -5.478   0.331       -0.382      -0.067      1094  
   929.375   1184.045  -5.520   0.240       -0.554      -0.134      1095  
   1073.172  1179.949  -4.740   0.376       -0.102      -0.025      1096  
   751.917   1188.297  -5.120   0.245       -0.443      -0.023      1097  
   919.868   1181.977  -5.210   0.442       -0.738      -0.371      1098  
   413.292   1192.144  -5.299   0.210       -0.355      0.008       1099  
   1183.418  1188.682  -4.943   0.665       0.183       0.692       1100  
   716.809   1190.399  -5.470   0.356       0.064       0.951       1101  
   891.891   1190.327  -5.639   0.326       -0.096      0.941       1102  
   1061.779  1190.076  -4.926   0.347       0.796       0.512       1103  
   1372.001  1192.229  -5.627   0.244       -0.311      -0.086      1104  
   1155.412  1190.885  -5.600   0.283       -0.216      -0.013      1105  
   1475.257  1199.686  -4.988   0.270       -0.218      -0.217      1106  
   1298.213  1199.084  -5.362   0.273       -0.945      -0.264      1107  
   1751.877  1196.226  -5.736   0.310       -0.168      0.793       1108  
   1435.242  1197.509  -5.351   0.307       -0.668      -0.684      1109  
   655.846   1198.213  -5.691   0.230       -0.248      0.155       1110  
   813.163   1196.414  -5.088   0.328       -0.830      -0.166      1111  
   1357.712  1203.662  -5.133   0.529       -0.372      -0.459      1112  
   709.928   1204.136  -5.739   0.230       -0.225      0.380       1113  
   1439.769  1209.492  -5.225   0.226       -0.369      0.002       1114  
   1061.228  1208.381  -5.483   0.356       -0.053      0.392       1115  
   1253.991  1215.777  -4.990   0.249       -0.327      -0.137      1116  
   457.448   1217.614  -5.556   0.231       -0.553      -0.191      1117  
   1746.617  1210.852  -5.612   0.264       -0.271      0.371       1118  
   1083.314  1215.182  -5.689   0.291       -0.137      0.187       1119  
   925.824   1217.651  -5.444   0.217       -0.474      -0.108      1120  
   1583.325  1216.154  -5.655   0.215       -0.278      -0.358      1121  
   1368.725  1215.454  -4.975   0.230       -0.248      0.406       1122  
   1544.872  1218.795  -5.599   0.246       -0.240      -0.171      1123  
   448.891   1221.116  -5.478   0.291       -0.492      0.379       1124  
   1560.114  1221.413  -5.436   0.388       -0.254      0.132       1125  
   242.390   1224.095  -5.725   0.230       -0.240      0.716       1126  
   849.040   1224.241  -5.485   0.344       0.229       -0.320      1127  
   744.473   1225.968  -5.664   0.214       -0.158      0.469       1128  
   1118.413  1231.874  -5.554   0.301       -0.389      -0.159      1129  
   1187.482  1230.878  -5.432   0.219       -0.301      0.097       1130  
   604.758   1233.273  -4.672   0.268       0.460       -0.627      1131  
   1701.143  1241.369  -5.621   0.334       0.118       0.044       1132  
   1445.155  1239.230  -5.662   0.267       -0.255      0.539       1133  
   606.508   1236.073  -4.767   0.318       0.070       -0.488      1134  
   1028.697  1241.714  -5.249   0.210       -0.570      0.119       1135  
   361.363   1236.459  -4.954   0.220       -0.565      0.142       1136  
   700.905   1236.743  -5.634   0.270       -0.490      -0.087      1137  
   849.825   1243.105  -5.674   0.251       -0.214      0.795       1138  
   1260.454  1245.899  -4.881   0.243       0.023       -0.383      1139  
   1656.238  1243.227  -5.654   0.275       -0.338      -0.070      1140  
   645.999   1244.029  -5.727   0.255       -0.391      -0.253      1141  
   1040.830  1246.984  -5.642   0.302       -0.285      0.601       1142  
   790.011   1251.073  -5.632   0.281       -0.212      0.274       1143  
   1265.172  1247.773  -4.720   0.389       -0.328      -0.724      1144  
   1503.979  1253.357  -5.727   0.267       -0.175      0.602       1145  
   342.313   1255.693  -5.196   0.220       -0.442      0.097       1146  
   413.016   1255.677  -5.634   0.310       -0.207      -0.222      1147  
   1320.774  1259.316  -4.968   0.294       -0.296      0.352       1148  
   1472.361  1255.272  -5.240   0.291       -0.072      0.252       1149  
   1012.139  1257.200  -5.706   0.251       -0.293      0.052       1150  
   1307.963  1262.113  -5.774   0.265       -0.076      0.663       1151  
   616.926   1260.703  -5.164   0.222       -0.292      -0.205      1152  
   1141.053  1260.581  -5.681   0.227       -0.242      -0.175      1153  
   42.546    1254.977  -5.493   0.207       -0.476      -0.094      1154  
   1321.196  1257.672  -4.835   0.248       -0.226      0.013       1155  
   1038.494  1266.796  -5.046   0.242       0.392       -0.446      1156  
   134.135   1267.039  -5.501   0.206       -0.409      0.095       1157  
   983.956   1266.232  -5.687   0.297       -0.015      0.635       1158  
   1250.083  1266.312  -5.555   0.345       -0.485      -0.931      1159  
   508.873   1268.173  -5.642   0.222       -0.405      0.054       1160  
   2029.810  1268.353  -5.749   0.232       -0.411      0.598       1161  
   471.892   1269.407  -5.767   0.242       -0.249      0.645       1162  
   680.011   1269.142  -5.411   0.270       -0.769      -0.270      1163  
   1440.324  1271.984  -4.992   0.203       -0.258      -0.164      1164  
   906.572   1272.736  -4.887   0.331       -0.673      -0.292      1165  
   885.127   1271.288  -5.580   0.260       -0.306      -0.206      1166  
   1427.809  1275.882  -5.488   0.250       0.166       -0.135      1167  
   401.320   1278.401  -5.646   0.230       -0.289      0.148       1168  
   1560.497  1280.184  -4.860   0.294       -0.116      -0.873      1169  
   1201.119  1278.388  -5.680   0.248       -0.412      -0.757      1170  
   904.016   1273.030  -5.022   0.285       -0.280      0.117       1171  
   1819.739  1280.159  -5.760   0.217       -0.272      0.458       1172  
   1860.944  1282.076  -5.737   0.218       -0.350      -0.055      1173  
   1245.602  1287.022  -4.861   0.294       -0.150      -0.257      1174  
   1562.249  1280.876  -4.824   0.300       -0.344      -0.594      1175  
   1587.548  1292.089  -5.721   0.213       -0.263      0.264       1176  
   711.158   1291.060  -5.191   0.223       -0.391      -0.058      1177  
   1386.682  1297.019  -5.673   0.278       -0.265      0.445       1178  
   753.934   1292.961  -5.679   0.233       -0.093      0.105       1179  
   1246.403  1288.871  -4.843   0.317       -0.308      -0.439      1180  
   1903.813  1294.177  -5.709   0.216       -0.445      0.385       1181  
   906.440   1296.081  -5.591   0.299       -0.188      0.085       1182  
   396.547   1296.877  -5.703   0.236       -0.240      0.898       1183  
   60.052    1298.046  -5.700   0.288       -0.186      0.461       1184  
   1119.981  1298.817  -5.597   0.291       -0.214      -0.708      1185  
   1801.429  1297.741  -5.739   0.262       -0.169      0.494       1186  
   1162.277  1303.153  -5.018   0.242       -0.302      0.018       1187  
   890.208   1301.407  -5.612   0.292       -0.293      -0.322      1188  
   1759.458  1300.711  -5.539   0.206       -0.592      -0.025      1189  
   1056.040  1306.035  -5.618   0.227       -0.333      -0.019      1190  
   1176.691  1303.424  -5.593   0.260       -0.416      -0.064      1191  
   1606.212  1305.553  -5.768   0.239       -0.083      0.326       1192  
   1121.820  1305.018  -5.392   0.401       0.111       -0.326      1193  
   1445.715  1308.051  -5.212   0.223       -0.334      0.240       1194  
   1536.978  1309.666  -5.273   0.216       -0.736      -0.591      1195  
   646.799   1318.708  -5.193   0.209       -0.402      -0.000      1196  
   1614.974  1316.203  -5.308   0.383       -0.775      -0.390      1197  
   1832.268  1321.034  -4.864   0.297       0.175       -0.130      1198  
   1867.419  1317.057  -5.772   0.214       -0.318      0.579       1199  
   663.039   1317.097  -5.272   0.272       0.537       0.124       1200  
   1448.293  1314.219  -5.052   0.230       0.209       -0.012      1201  
   1462.158  1320.169  -5.779   0.273       -0.237      0.460       1202  
   978.760   1322.128  -5.702   0.238       -0.151      0.594       1203  
   1514.993  1324.640  -5.643   0.208       -0.362      -0.075      1204  
   1373.583  1324.796  -5.252   0.547       -0.385      -0.538      1205  
   1836.990  1321.462  -4.867   0.320       -0.247      -0.593      1206  
   265.070   1328.484  -5.554   0.271       -0.297      -0.657      1207  
   1315.479  1327.673  -5.450   0.201       -0.354      0.070       1208  
   817.130   1327.856  -5.498   0.220       -0.174      -0.186      1209  
   638.361   1336.597  -5.053   0.285       -0.317      0.125       1210  
   1433.190  1333.676  -5.510   0.410       -0.315      0.453       1211  
   1680.982  1335.126  -5.688   0.245       -0.346      0.047       1212  
   1085.947  1337.119  -5.594   0.242       -0.518      -0.183      1213  
   1980.120  1340.735  -5.449   0.227       -0.248      0.135       1214  
   905.963   1340.605  -4.768   0.232       -0.071      -0.905      1215  
   1373.775  1337.469  -5.646   0.239       -0.426      0.038       1216  
   266.265   1342.048  -5.675   0.231       -0.246      -0.463      1217  
   1584.945  1343.420  -5.805   0.244       -0.195      -0.099      1218  
   1066.135  1346.228  -5.388   0.217       -0.641      -0.202      1219  
   1787.567  1350.694  -4.976   0.231       -0.186      -0.020      1220  
   903.421   1348.385  -4.984   0.297       -0.505      0.150       1221  
   495.256   1354.042  -5.462   0.216       -0.432      -0.263      1222  
   1085.444  1354.217  -5.160   0.399       0.259       -0.204      1223  
   578.048   1356.583  -5.006   0.256       -0.247      -0.197      1224  
   1351.395  1356.004  -5.477   0.224       -0.329      -0.130      1225  
   1277.783  1350.941  -5.617   0.221       -0.399      0.147       1226  
   1087.251  1357.663  -5.054   0.255       -0.196      -0.138      1227  
   1220.973  1359.176  -5.678   0.221       -0.323      0.522       1228  
   856.951   1362.472  -5.543   0.320       -0.161      -0.090      1229  
   1207.050  1358.226  -5.688   0.235       -0.486      -0.074      1230  
   1508.921  1363.243  -5.725   0.224       -0.352      0.341       1231  
   1659.373  1366.917  -5.140   0.212       -0.216      -0.009      1232  
   1012.006  1367.016  -5.637   0.254       -0.168      0.039       1233  
   409.901   1372.110  -4.900   0.206       -0.217      0.005       1234  
   1988.242  1368.258  -5.789   0.256       -0.161      0.457       1235  
   900.589   1367.428  -5.498   0.355       -0.101      -0.160      1236  
   932.641   1371.008  -5.492   0.229       -0.277      0.045       1237  
   1355.780  1373.791  -5.303   0.213       -0.455      0.004       1238  
   972.106   1374.194  -5.484   0.201       -0.348      0.021       1239  
   1088.509  1377.647  -5.680   0.229       -0.417      0.146       1240  
   1512.702  1382.370  -5.373   0.220       -0.366      0.062       1241  
   1982.403  1385.344  -4.977   0.209       -0.348      0.094       1242  
   176.965   1378.739  -4.844   0.244       -0.454      -0.337      1243  
   933.452   1390.315  -4.811   0.341       -0.057      -0.915      1244  
   1824.186  1385.403  -5.802   0.232       -0.116      0.739       1245  
   1695.162  1385.378  -5.699   0.239       -0.330      0.573       1246  
   928.687   1393.628  -4.759   0.333       0.192       0.100       1247  
   1724.119  1390.514  -5.580   0.357       -0.205      -0.212      1248  
   1143.039  1393.271  -5.525   0.340       -0.050      0.932       1249  
   1438.628  1395.273  -5.709   0.242       -0.351      0.148       1250  
   932.053   1391.641  -4.784   0.372       -0.055      -0.254      1251  
   1613.169  1399.106  -5.765   0.303       -0.262      0.845       1252  
   1773.976  1401.007  -5.767   0.224       -0.280      0.545       1253  
   1256.001  1406.285  -5.717   0.222       -0.333      -0.078      1254  
   461.912   1405.026  -5.654   0.206       -0.406      0.658       1255  
   1042.078  1405.451  -5.490   0.226       -0.315      0.197       1256  
   1525.007  1409.583  -5.713   0.215       -0.380      0.268       1257  
   901.076   1412.248  -5.652   0.232       -0.339      0.179       1258  
   1074.095  1416.653  -4.996   0.213       -0.285      -0.241      1259  
   1048.256  1417.036  -5.731   0.239       -0.232      0.496       1260  
   1020.271  1413.777  -4.987   0.238       -0.317      -0.063      1261  
   329.225   1421.974  -5.682   0.220       -0.131      0.943       1262  
   916.344   1421.667  -5.638   0.261       -0.367      0.325       1263  
   301.799   1428.175  -5.653   0.212       -0.243      0.432       1264  
   926.862   1424.684  -5.591   0.225       -0.371      0.011       1265  
   1008.788  1432.739  -5.475   0.220       -0.496      0.077       1266  
   1476.798  1431.275  -5.765   0.228       -0.304      0.834       1267  
   1700.401  1435.110  -5.760   0.206       -0.283      0.265       1268  
   871.865   1443.398  -5.655   0.227       -0.369      0.466       1269  
   1671.812  1440.323  -4.961   0.248       -0.200      -0.085      1270  
   1628.591  1444.145  -5.647   0.225       -0.323      0.177       1271  
   927.197   1448.067  -5.574   0.288       -0.290      -0.115      1272  
   663.071   1453.242  -5.645   0.212       -0.453      -0.498      1273  
   671.643   1448.310  -5.616   0.213       -0.269      0.089       1274  
   752.337   1456.998  -4.802   0.240       -0.020      -0.654      1275  
   1098.000  1454.888  -5.675   0.254       -0.257      0.666       1276  
   814.447   1460.637  -5.378   0.243       -0.918      0.371       1277  
   756.728   1456.933  -4.800   0.310       -0.317      -0.652      1278  
   999.572   1464.560  -5.111   0.215       -0.280      -0.092      1279  
   1020.985  1467.833  -4.766   0.343       -0.117      -0.560      1280  
   769.199   1459.031  -5.556   0.207       -0.412      0.027       1281  
   365.861   1467.290  -5.589   0.229       -0.398      -0.708      1282  
   1923.323  1469.068  -5.462   0.320       -0.010      0.667       1283  
   1017.343  1472.115  -4.728   0.292       -0.406      0.972       1284  
   706.920   1471.085  -5.651   0.218       -0.330      -0.267      1285  
   799.767   1470.990  -5.575   0.310       -0.367      -0.044      1286  
   1349.815  1471.700  -5.568   0.233       -0.301      -0.131      1287  
   1057.870  1476.244  -5.354   0.253       0.032       -0.176      1288  
   1619.527  1475.098  -5.737   0.216       -0.327      0.024       1289  
   1061.805  1478.314  -5.268   0.305       0.190       -0.023      1290  
   981.713   1485.675  -4.943   0.245       -0.011      0.079       1291  
   1338.148  1486.135  -4.900   0.312       -0.028      0.006       1292  
   1560.477  1485.062  -5.458   0.205       -0.376      0.107       1293  
   1009.315  1483.728  -4.602   0.245       0.325       0.057       1294  
   1023.691  1486.602  -4.972   0.277       -0.063      -0.968      1295  
   983.967   1491.492  -4.876   0.285       0.123       0.304       1296  
   1339.795  1488.774  -4.853   0.296       -0.329      -0.295      1297  
   1764.803  1498.715  -5.482   0.428       -0.215      -0.460      1298  
   12.039    1504.119  -5.714   0.212       -0.241      0.840       1299  
   799.132   1507.394  -5.449   0.219       -0.425      -0.079      1300  
   866.398   1504.092  -5.633   0.228       -0.418      0.228       1301  
   1330.575  1506.750  -5.570   0.233       -0.523      0.086       1302  
   1385.214  1512.136  -5.727   0.224       -0.164      0.444       1303  
   1725.113  1512.058  -5.721   0.204       -0.184      -0.170      1304  
   1036.366  1515.090  -5.433   0.271       -0.864      -0.037      1305  
   1442.069  1517.358  -5.835   0.257       -0.370      -0.032      1306  
   1140.041  1519.249  -5.754   0.216       -0.255      -0.179      1307  
   1671.678  1526.042  -5.765   0.240       -0.250      0.239       1308  
   868.166   1527.268  -5.681   0.312       -0.197      0.276       1309  
   832.257   1527.986  -5.067   0.203       -0.286      0.166       1310  
   1011.945  1532.262  -5.226   0.235       -0.262      0.020       1311  
   192.845   1541.340  -5.743   0.298       -0.064      -0.751      1312  
   412.223   1545.994  -5.663   0.228       -0.214      -0.048      1313  
   1184.203  1546.093  -5.740   0.256       -0.220      0.720       1314  
   902.717   1554.336  -5.717   0.276       -0.098      -0.483      1315  
   991.402   1567.135  -5.615   0.233       -0.281      0.255       1316  
   1519.122  1581.189  -5.864   0.249       -0.254      0.987       1317  
   786.152   1583.646  -5.231   0.252       -0.703      0.166       1318  
   1496.017  1588.942  -5.534   0.213       -0.391      0.553       1319  
   1474.882  1590.341  -5.851   0.250       -0.268      0.479       1320  
   732.603   1597.252  -5.107   0.214       -0.280      -0.035      1321  
   1994.230  1596.270  -5.795   0.289       -0.100      0.596       1322  
   1093.059  1597.247  -5.583   0.217       -0.324      -0.116      1323  
   1625.213  1600.246  -5.091   0.517       -0.935      0.305       1324  
   1045.476  1601.118  -5.565   0.344       -0.156      0.159       1325  
   522.124   1599.400  -5.450   0.212       -0.446      -0.211      1326  
   1957.899  1608.770  -5.776   0.208       -0.326      -0.660      1327  
   1036.043  1607.825  -5.650   0.242       -0.302      -0.181      1328  
   1325.954  1609.039  -5.159   0.205       -0.393      0.273       1329  
   1085.194  1612.183  -5.637   0.211       -0.415      0.270       1330  
   1616.369  1620.758  -5.666   0.233       -0.260      -0.177      1331  
   956.942   1627.805  -5.757   0.259       -0.126      0.692       1332  
   1057.223  1634.103  -5.730   0.226       -0.373      0.040       1333  
   681.373   1638.932  -5.453   0.222       -0.261      0.030       1334  
   2021.005  1639.021  -5.754   0.221       -0.237      0.015       1335  
   1841.284  1644.128  -5.845   0.228       -0.149      0.858       1336  
   673.176   1645.917  -5.411   0.308       -0.022      0.287       1337  
   136.756   1653.760  -5.553   0.210       -0.503      -0.248      1338  
   1370.918  1657.706  -5.033   0.221       -0.138      0.127       1339  
   724.836   1660.143  -5.809   0.237       -0.153      0.602       1340  
   746.178   1662.155  -5.742   0.251       -0.341      0.396       1341  
   793.200   1671.130  -5.772   0.209       -0.302      0.259       1342  
   1553.224  1672.261  -5.734   0.209       -0.218      0.467       1343  
   1489.040  1673.040  -5.644   0.200       -0.376      0.146       1344  
   558.970   1678.416  -5.788   0.250       -0.132      0.674       1345  
   1411.575  1683.456  -4.951   0.252       -0.213      -0.121      1346  
   587.773   1686.930  -5.557   0.208       -0.446      0.009       1347  
   1255.979  1686.217  -5.775   0.269       -0.084      0.902       1348  
   1412.438  1688.600  -4.873   0.371       0.199       0.020       1349  
   1466.179  1695.415  -5.706   0.249       -0.478      0.345       1350  
   1398.837  1699.213  -5.573   0.215       -0.485      0.098       1351  
   928.011   1707.901  -5.743   0.219       -0.231      0.421       1352  
   782.540   1708.885  -4.863   0.299       -0.268      -0.012      1353  
   957.123   1710.217  -5.809   0.283       -0.166      0.962       1354  
   1752.271  1713.245  -5.681   0.217       -0.358      0.439       1355  
   781.173   1712.789  -4.747   0.328       0.051       -0.150      1356  
   758.358   1722.846  -5.343   0.407       0.112       0.823       1357  
   1450.285  1728.181  -4.907   0.240       0.058       0.062       1358  
   916.947   1726.209  -5.699   0.225       -0.222      0.667       1359  
   818.225   1730.995  -5.746   0.227       -0.273      0.451       1360  
   860.005   1731.245  -5.726   0.212       -0.276      0.805       1361  
   1451.020  1729.715  -4.611   0.240       0.102       0.068       1362  
   103.957   1738.216  -5.745   0.214       -0.314      0.847       1363  
   1526.790  1742.972  -5.689   0.211       -0.276      0.085       1364  
   1454.129  1748.262  -4.842   0.332       0.089       0.658       1365  
   1035.832  1747.922  -5.427   0.206       -0.614      0.022       1366  
   1470.401  1751.667  -5.464   0.214       -0.120      0.293       1367  
   1455.564  1749.305  -4.817   0.329       -0.191      -0.223      1368  
   157.760   1758.337  -5.540   0.253       -0.077      0.727       1369  
   300.318   1759.183  -5.800   0.219       -0.240      0.269       1370  
   620.367   1768.717  -4.743   0.217       0.147       -0.994      1371  
   621.261   1772.046  -4.713   0.397       -0.101      -0.457      1372  
   590.872   1779.031  -5.769   0.241       -0.263      0.650       1373  
   1688.415  1777.833  -5.290   0.215       -0.652      -0.260      1374  
   408.254   1791.286  -5.780   0.239       -0.188      0.771       1375  
   718.303   1801.990  -5.280   0.206       -0.284      0.249       1376  
   948.955   1808.062  -5.685   0.229       -0.233      0.844       1377  
   1648.409  1810.226  -5.851   0.234       -0.261      0.929       1378  
   1663.894  1812.328  -5.829   0.226       -0.158      0.420       1379  
   1761.288  1816.176  -5.847   0.205       -0.253      0.482       1380  
   1151.167  1828.263  -5.558   0.213       -0.381      0.245       1381  
   101.568   1827.265  -5.835   0.254       -0.121      0.709       1382  
   1435.961  1833.158  -5.822   0.223       -0.275      0.010       1383  
   883.831   1836.040  -5.315   0.210       -0.682      0.242       1384  
   1331.178  1851.074  -4.970   0.213       0.063       0.059       1385  
   330.877   1857.274  -5.850   0.209       -0.078      -0.183      1386  
   2015.837  1859.047  -5.621   0.216       -0.355      0.092       1387  
   1056.967  1869.157  -5.803   0.217       -0.154      0.454       1388  
   1791.679  1874.331  -4.758   0.378       0.185       -0.704      1389  
   1814.347  1880.400  -4.899   0.268       -0.573      -0.595      1390  
   1003.367  1885.954  -4.966   0.246       -0.270      -0.286      1391  
   1641.651  1886.715  -4.697   0.276       -0.091      -0.686      1392  
   1788.636  1886.488  -4.535   0.323       0.180       -0.717      1393  
   1007.461  1891.793  -4.884   0.254       -0.280      -0.447      1394  
   1361.219  1899.232  -5.661   0.200       -0.367      0.353       1395  
   531.440   1892.201  -4.898   0.236       -0.397      -0.200      1396  
   871.270   1898.248  -5.740   0.219       -0.175      0.676       1397  
   1641.901  1894.504  -4.845   0.366       -0.155      -0.469      1398  
   682.904   1909.065  -5.712   0.208       -0.377      0.065       1399  
   1730.244  1906.709  -5.584   0.211       -0.355      0.121       1400  
   1082.080  1908.851  -4.804   0.216       0.098       -0.774      1401  
   1082.608  1911.645  -4.957   0.314       -0.187      -0.179      1402  
   35.923    1917.150  -5.659   0.210       -0.363      0.247       1403  
   898.250   1920.999  -5.825   0.228       -0.173      0.747       1404  
   1034.811  1925.542  -5.133   0.201       -0.533      0.189       1405  
   1595.435  1931.842  -4.803   0.235       0.026       -0.944      1406  
   1192.201  1935.029  -5.528   0.219       -0.425      0.141       1407  
   274.617   1935.193  -5.750   0.205       -0.324      0.596       1408  
   544.899   1942.217  -4.776   0.219       0.175       -0.753      1409  
   1597.508  1935.093  -4.819   0.321       -0.010      -0.509      1410  
   1005.478  1937.699  -5.724   0.205       -0.357      0.177       1411  
   403.286   1945.236  -5.777   0.211       -0.335      0.338       1412  
   545.007   1944.732  -4.808   0.336       -0.314      -0.582      1413  
   1638.581  1960.351  -5.109   0.243       -0.136      -0.315      1414  
   327.292   1963.001  -5.776   0.299       -0.140      0.501       1415  
   229.929   1968.258  -5.755   0.214       -0.266      -0.202      1416  
   1955.686  1979.293  -5.795   0.211       -0.318      0.686       1417  
   1199.058  1983.767  -5.155   0.225       -0.209      -0.092      1418  
   1305.442  1983.565  -5.384   0.241       -0.712      -0.032      1419  
   1296.523  1998.113  -4.953   0.278       -0.317      -0.220      1420  
   151.254   2002.305  -5.730   0.239       -0.238      0.513       1421  
   687.959   2002.085  -5.798   0.303       -0.232      0.805       1422  
   1108.712  1998.309  -5.651   0.208       -0.385      0.215       1423  
   13.285    2017.113  -5.809   0.280       -0.219      0.372       1424  
   929.858   2029.971  -5.625   0.233       -0.405      -0.309      1425  
   1646.893  2032.702  -5.406   0.401       -0.437      0.635       1426  
   254.057   2041.336  -4.970   0.239       -0.065      -0.279      1427  
