#K IRAF       = NOAO/IRAFV2.16.1        version    %-23s     
#K USER       = juan                    name       %-23s     
#K HOST       = juan-UX303LA            computer   %-23s     
#K DATE       = 2016-03-27              yyyy-mm-dd %-23s     
#K TIME       = 15:39:45                hh:mm:ss   %-23s     
#K PACKAGE    = apphot                  name       %-23s     
#K TASK       = daofind                 name       %-23s     
#
#K SCALE      = 1.                      units      %-23.7g   
#K FWHMPSF    = 10.651                  scaleunit  %-23.7g   
#K EMISSION   = yes                     switch     %-23b     
#K DATAMIN    = 12000.                  counts     %-23.7g   
#K DATAMAX    = INDEF                   counts     %-23.7g   
#K EXPOSURE   = ""                      keyword    %-23s     
#K AIRMASS    = ""                      keyword    %-23s     
#K FILTER     = ""                      keyword    %-23s     
#K OBSTIME    = ""                      keyword    %-23s     
#
#K NOISE      = poisson                 model      %-23s     
#K SIGMA      = 262.                    counts     %-23.7g   
#K GAIN       = ""                      keyword    %-23s     
#K EPADU      = 1.                      e-/adu     %-23.7g   
#K CCDREAD    = ""                      keyword    %-23s     
#K READNOISE  = 0.                      e-         %-23.7g   
#
#K IMAGE      = I                       imagename  %-23s     
#K FWHMPSF    = 10.651                  scaleunit  %-23.7g   
#K THRESHOLD  = 4.                      sigma      %-23.7g   
#K NSIGMA     = 1.5                     sigma      %-23.7g   
#K RATIO      = 1.                      number     %-23.7g   
#K THETA      = 0.                      degrees    %-23.7g   
#
#K SHARPLO    = 0.2                     number     %-23.7g   
#K SHARPHI    = 1.                      number     %-23.7g   
#K ROUNDLO    = -1.                     number     %-23.7g   
#K ROUNDHI    = 1.                      number     %-23.7g   
#
#N XCENTER   YCENTER   MAG      SHARPNESS   SROUND      GROUND      ID         \
#U pixels    pixels    #        #           #           #           #          \
#F %-13.3f   %-10.3f   %-9.3f   %-12.3f     %-12.3f     %-12.3f     %-6d       \
#
   1289.093  7.187     -5.541   0.495       -0.497      -0.499      1     
   420.201   8.160     -5.417   0.408       -0.177      0.848       2     
   1458.254  9.896     -4.914   0.479       -0.066      -0.564      3     
   1906.882  13.316    -5.996   0.257       -0.323      0.008       4     
   464.651   19.558    -5.848   0.284       -0.319      0.045       5     
   919.861   18.872    -5.815   0.304       -0.605      0.017       6     
   1489.150  21.707    -5.457   0.252       -0.298      -0.332      7     
   1475.077  26.343    -5.752   0.254       -0.482      -0.231      8     
   900.748   24.574    -5.655   0.258       -0.695      0.303       9     
   52.494    30.104    -5.948   0.297       -0.246      -0.008      10    
   1350.859  30.758    -5.690   0.346       -0.108      0.274       11    
   1155.155  31.987    -5.671   0.421       -0.149      0.244       12    
   419.460   39.332    -5.288   0.248       -0.571      0.083       13    
   1421.096  44.081    -5.423   0.252       -0.407      0.200       14    
   870.995   50.961    -5.651   0.348       -0.061      0.403       15    
   1275.930  54.703    -5.729   0.282       -0.104      -0.063      16    
   1608.107  58.443    -5.805   0.336       -0.070      -0.021      17    
   735.058   56.429    -5.740   0.229       -0.433      0.052       18    
   1227.751  56.867    -5.284   0.426       -0.260      0.683       19    
   873.716   58.228    -5.591   0.367       0.245       0.072       20    
   222.978   67.130    -5.845   0.292       -0.248      0.010       21    
   1279.117  61.417    -5.626   0.351       0.190       0.264       22    
   1037.901  65.589    -5.583   0.211       -0.296      0.032       23    
   1206.254  71.165    -5.796   0.351       -0.238      -0.076      24    
   1076.971  70.434    -5.691   0.236       -0.392      -0.003      25    
   293.823   75.459    -5.820   0.292       -0.288      0.047       26    
   1133.848  75.849    -5.233   0.320       -0.386      -0.200      27    
   1939.884  75.160    -5.660   0.226       -0.424      -0.016      28    
   1527.354  78.598    -5.174   0.272       -0.708      -0.075      29    
   1115.837  80.916    -5.663   0.432       -0.267      -0.020      30    
   1132.768  76.877    -5.263   0.294       -0.538      0.288       31    
   50.741    80.364    -5.809   0.239       -0.411      -0.023      32    
   1849.362  80.666    -5.836   0.247       -0.383      0.078       33    
   1985.581  83.536    -5.194   0.321       0.102       -0.168      34    
   1525.745  79.713    -5.281   0.264       -0.454      0.322       35    
   250.781   83.064    -5.586   0.215       -0.434      0.036       36    
   1999.538  84.709    -5.951   0.354       -0.218      0.037       37    
   1161.819  93.009    -5.795   0.312       -0.191      0.022       38    
   901.123   90.213    -5.541   0.436       -0.221      0.404       39    
   1982.614  87.213    -5.243   0.296       0.046       -0.083      40    
   478.567   94.055    -5.316   0.292       -0.583      0.090       41    
   1341.968  103.154   -5.835   0.327       -0.117      0.093       42    
   720.304   98.562    -5.746   0.247       -0.350      0.038       43    
   1251.838  100.002   -5.114   0.402       -0.226      -0.116      44    
   735.219   101.087   -5.406   0.504       -0.203      0.741       45    
   1042.857  102.114   -5.733   0.241       -0.188      0.023       46    
   1825.950  104.140   -5.654   0.455       -0.340      -0.168      47    
   675.465   112.102   -5.848   0.273       -0.287      -0.145      48    
   1434.700  110.450   -5.392   0.515       -0.470      -0.654      49    
   449.388   112.600   -5.056   0.268       0.282       0.576       50    
   1053.063  108.394   -5.434   0.505       -0.637      -0.939      51    
   447.123   114.170   -5.078   0.316       -0.050      -0.408      52    
   1376.198  119.318   -5.688   0.400       -0.234      -0.122      53    
   1441.579  122.182   -5.821   0.266       -0.242      0.042       54    
   1202.197  122.947   -5.177   0.509       -0.242      -0.231      55    
   47.019    124.115   -5.848   0.312       -0.234      -0.386      56    
   1074.766  125.199   -5.816   0.281       -0.398      -0.128      57    
   886.110   128.409   -5.589   0.219       -0.420      0.089       58    
   1518.250  128.450   -5.755   0.373       -0.195      0.007       59    
   587.598   133.533   -5.745   0.273       -0.541      -0.071      60    
   204.952   131.137   -5.832   0.284       -0.283      0.388       61    
   401.679   136.934   -5.807   0.285       -0.297      0.017       62    
   1091.159  132.070   -5.592   0.480       -0.136      0.104       63    
   1974.944  135.157   -5.882   0.332       -0.236      -0.260      64    
   734.478   133.527   -5.352   0.267       -0.656      0.117       65    
   1061.915  137.545   -5.694   0.275       -0.733      -0.037      66    
   1729.080  137.218   -5.704   0.215       -0.392      0.075       67    
   1033.719  135.063   -5.736   0.337       -0.464      0.019       68    
   1309.221  138.088   -5.744   0.344       0.018       -0.206      69    
   1490.995  140.870   -5.718   0.382       0.006       0.147       70    
   849.763   143.541   -5.695   0.335       -0.489      -0.150      71    
   930.246   147.206   -4.964   0.545       -0.231      -0.527      72    
   1021.853  148.694   -5.748   0.239       -0.465      0.001       73    
   1741.981  150.911   -5.396   0.465       -0.152      0.591       74    
   1842.142  154.014   -5.915   0.275       -0.255      -0.156      75    
   430.568   161.729   -5.105   0.322       0.153       0.144       76    
   1878.526  163.394   -5.833   0.234       -0.438      0.005       77    
   429.425   163.380   -5.160   0.286       -0.197      0.012       78    
   1656.851  169.117   -5.064   0.331       0.268       0.856       79    
   1654.158  171.127   -5.113   0.285       -0.034      -0.429      80    
   1723.990  174.150   -5.810   0.368       -0.199      0.405       81    
   578.010   175.116   -5.671   0.404       -0.211      -0.709      82    
   1086.185  176.973   -5.656   0.355       0.432       -0.327      83    
   1156.531  175.123   -5.297   0.485       -0.449      0.002       84    
   1112.923  176.076   -5.330   0.524       -0.110      -0.070      85    
   906.485   177.089   -5.331   0.290       -0.528      0.232       86    
   1411.714  183.083   -5.472   0.526       -0.271      0.652       87    
   1343.192  188.367   -5.184   0.336       -0.130      0.060       88    
   1738.407  186.092   -5.823   0.250       -0.466      -0.052      89    
   978.562   184.798   -5.495   0.506       -0.330      0.167       90    
   1122.596  189.141   -5.682   0.243       -0.015      0.152       91    
   140.920   194.214   -5.856   0.278       -0.278      0.188       92    
   1341.953  189.587   -5.191   0.259       -0.109      0.355       93    
   1042.079  193.245   -5.429   0.506       -0.229      -0.363      94    
   958.210   199.494   -5.386   0.292       0.059       0.284       95    
   82.879    204.833   -5.077   0.335       -0.090      -0.310      96    
   1800.180  200.053   -5.598   0.218       -0.728      0.010       97    
   818.211   206.720   -5.562   0.461       -0.127      -0.148      98    
   1391.831  202.091   -5.778   0.301       -0.309      -0.349      99    
   996.703   207.426   -5.060   0.380       -0.013      -0.319      100   
   998.389   208.336   -5.148   0.273       -0.071      0.515       101   
   83.615    205.225   -5.098   0.289       -0.282      -0.214      102   
   1093.232  210.158   -5.317   0.458       -0.235      0.708       103   
   1124.285  208.102   -5.285   0.307       -0.421      0.184       104   
   26.917    210.148   -5.864   0.268       -0.378      -0.018      105   
   957.847   210.229   -5.041   0.338       0.531       0.183       106   
   966.429   210.032   -5.028   0.305       -0.249      0.321       107   
   1438.206  213.234   -5.797   0.341       -0.231      0.022       108   
   800.764   216.572   -5.619   0.229       -0.437      0.001       109   
   715.047   216.347   -5.172   0.425       -0.164      0.372       110   
   1699.914  219.700   -5.826   0.355       -0.182      0.292       111   
   1025.399  216.091   -5.794   0.261       -0.329      -0.037      112   
   1507.738  219.766   -5.161   0.321       -0.211      -0.321      113   
   588.287   220.560   -5.616   0.387       -0.361      -0.015      114   
   1317.945  219.640   -5.502   0.224       -0.477      -0.226      115   
   979.965   216.854   -5.188   0.543       -0.274      -0.984      116   
   1865.812  226.318   -5.758   0.365       -0.106      -0.544      117   
   1147.271  222.929   -5.302   0.297       0.116       -0.048      118   
   340.932   217.985   -5.806   0.266       -0.290      -0.029      119   
   1382.554  223.799   -5.516   0.213       -0.584      0.044       120   
   1642.360  225.519   -5.392   0.239       -0.380      0.001       121   
   1152.953  225.983   -4.918   0.339       0.063       0.148       122   
   1976.120  223.137   -5.896   0.266       -0.383      0.068       123   
   1506.595  221.576   -5.203   0.348       -0.213      0.295       124   
   420.245   226.839   -5.732   0.272       -0.500      0.095       125   
   694.611   226.003   -5.638   0.443       -0.339      -0.192      126   
   884.729   228.074   -5.450   0.521       -0.386      0.186       127   
   597.821   227.784   -5.511   0.234       -0.083      0.149       128   
   1083.904  229.353   -5.268   0.454       -0.138      -0.085      129   
   1117.857  232.991   -5.329   0.348       -0.012      0.694       130   
   1577.703  230.057   -5.505   0.520       -0.240      0.642       131   
   1959.384  229.680   -5.356   0.521       0.146       0.044       132   
   1827.886  233.064   -5.835   0.355       -0.161      0.252       133   
   68.951    228.010   -5.834   0.295       -0.286      0.249       134   
   1410.302  234.504   -5.812   0.291       -0.475      -0.010      135   
   612.177   236.088   -5.337   0.530       -0.266      -0.568      136   
   1117.404  234.698   -5.385   0.241       0.185       0.246       137   
   1129.051  236.892   -4.773   0.602       -0.352      -0.233      138   
   1444.124  237.048   -5.505   0.505       -0.250      -0.147      139   
   702.552   238.543   -5.684   0.238       -0.283      -0.044      140   
   1152.630  235.280   -5.226   0.284       -0.228      0.038       141   
   1718.183  239.949   -5.596   0.417       -0.211      0.784       142   
   1992.976  240.157   -5.779   0.385       -0.181      0.663       143   
   418.827   238.530   -5.229   0.255       -0.382      0.462       144   
   1252.280  242.778   -5.465   0.472       -0.261      0.538       145   
   1079.008  247.515   -5.733   0.268       -0.673      -0.043      146   
   423.879   250.308   -5.482   0.430       0.022       0.519       147   
   1786.827  250.202   -5.072   0.536       0.016       -0.750      148   
   1154.294  253.604   -5.561   0.462       -0.142      -0.180      149   
   511.183   251.975   -5.366   0.516       -0.075      0.630       150   
   264.065   254.394   -5.734   0.283       0.155       -0.089      151   
   850.665   253.381   -5.628   0.232       -0.269      0.054       152   
   1252.151  255.030   -5.071   0.586       0.132       0.437       153   
   1272.419  255.972   -5.403   0.213       -0.339      0.027       154   
   1797.965  256.904   -5.221   0.280       -0.177      0.232       155   
   825.912   258.011   -5.307   0.470       -0.422      0.459       156   
   914.530   259.777   -4.936   0.622       0.889       -0.527      157   
   1093.820  260.229   -4.807   0.487       0.251       0.052       158   
   1419.807  262.285   -5.272   0.287       -0.257      -0.071      159   
   1620.944  260.004   -5.622   0.452       -0.317      0.429       160   
   1796.395  258.628   -5.256   0.283       -0.406      0.135       161   
   1183.434  264.050   -4.547   0.330       -0.339      0.611       162   
   1233.896  267.625   -5.187   0.320       -0.220      -0.238      163   
   1295.446  266.648   -5.163   0.284       -0.378      0.199       164   
   916.701   264.367   -5.076   0.603       0.786       0.018       165   
   705.636   265.568   -5.310   0.288       -0.584      0.090       166   
   597.979   271.472   -5.485   0.487       -0.050      -0.139      167   
   1232.387  269.249   -5.242   0.286       -0.244      0.257       168   
   1294.658  267.469   -5.218   0.309       -0.209      0.233       169   
   760.030   272.603   -5.564   0.229       -0.091      0.103       170   
   881.419   272.998   -5.701   0.379       -0.326      0.010       171   
   1429.140  272.876   -4.837   0.614       -0.436      -0.848      172   
   1895.305  273.587   -5.611   0.221       -0.511      0.093       173   
   1092.655  280.099   -5.751   0.264       -0.476      -0.027      174   
   814.931   284.272   -4.818   0.505       0.154       0.377       175   
   1012.887  284.690   -5.701   0.340       -0.267      -0.146      176   
   1910.034  285.121   -5.725   0.417       -0.172      -0.122      177   
   1153.957  285.976   -5.432   0.210       -0.624      0.126       178   
   1425.026  287.863   -5.130   0.294       -0.112      0.307       179   
   774.114   287.885   -5.708   0.293       -0.437      -0.019      180   
   1424.365  288.775   -5.158   0.286       -0.099      0.157       181   
   1041.785  293.929   -5.003   0.562       0.122       0.600       182   
   207.599   299.902   -5.103   0.273       -0.031      0.033       183   
   973.194   299.051   -5.035   0.287       0.269       0.043       184   
   595.807   301.509   -5.007   0.286       0.128       0.113       185   
   833.907   302.276   -4.706   0.576       -0.560      0.347       186   
   1521.729  299.534   -5.332   0.279       -0.539      0.019       187   
   515.079   307.856   -5.723   0.308       -0.185      -0.274      188   
   209.189   299.453   -5.098   0.294       -0.306      -0.154      189   
   1818.055  302.281   -5.797   0.274       -0.728      -0.107      190   
   970.633   302.376   -5.095   0.333       0.011       0.258       191   
   594.079   303.247   -5.031   0.355       0.111       0.091       192   
   581.376   302.024   -5.565   0.433       -0.241      0.210       193   
   1202.716  307.988   -4.998   0.489       -0.423      0.115       194   
   1404.936  310.317   -5.562   0.347       -0.600      -0.610      195   
   410.538   311.729   -5.640   0.295       0.139       -0.456      196   
   753.837   311.323   -5.695   0.244       -0.355      -0.175      197   
   624.877   314.179   -5.702   0.239       -0.304      -0.060      198   
   860.878   320.947   -5.337   0.484       -0.614      0.055       199   
   1107.515  317.084   -5.573   0.479       -0.163      0.194       200   
   1721.880  317.204   -5.524   0.406       -0.306      0.351       201   
   642.754   320.824   -5.333   0.239       -0.288      -0.030      202   
   1465.040  318.960   -5.793   0.264       -0.493      -0.090      203   
   1593.802  321.409   -5.854   0.266       -0.339      -0.050      204   
   1944.636  319.112   -5.396   0.264       -0.633      0.317       205   
   1524.848  325.228   -5.111   0.291       -0.173      -0.557      206   
   1094.598  323.080   -5.714   0.329       -0.320      -0.101      207   
   1651.985  323.491   -5.654   0.244       -0.673      -0.044      208   
   1541.962  328.324   -5.686   0.371       -0.337      0.010       209   
   884.379   328.901   -5.438   0.482       -0.253      -0.276      210   
   1526.718  327.347   -5.129   0.224       -0.083      -0.090      211   
   1022.565  332.536   -5.719   0.348       -0.211      -0.089      212   
   1667.844  326.849   -5.722   0.379       -0.232      0.068       213   
   917.823   332.274   -5.728   0.342       -0.318      0.072       214   
   1661.999  333.889   -5.386   0.565       -0.336      -0.376      215   
   596.151   335.107   -5.192   0.457       -0.134      0.052       216   
   1501.088  336.088   -5.651   0.432       -0.279      0.542       217   
   1791.017  337.202   -5.567   0.219       -0.467      0.035       218   
   1971.924  337.098   -5.815   0.347       -0.156      -0.101      219   
   771.477   341.407   -5.138   0.321       -0.304      -0.019      220   
   799.078   342.596   -5.124   0.359       0.054       -0.032      221   
   938.891   339.106   -4.741   0.530       -0.463      0.386       222   
   1363.986  339.288   -5.521   0.495       -0.242      -0.206      223   
   1153.659  340.888   -5.709   0.363       -0.075      0.577       224   
   1334.285  342.007   -5.706   0.249       -0.281      -0.001      225   
   313.734   342.137   -5.795   0.259       -0.429      -0.049      226   
   587.895   348.571   -5.691   0.347       -0.397      0.103       227   
   888.825   344.164   -5.689   0.256       -0.254      -0.048      228   
   1829.876  345.140   -5.783   0.375       -0.135      -0.327      229   
   862.139   349.760   -5.443   0.512       -0.486      -0.090      230   
   1071.975  348.279   -5.516   0.256       -0.271      -0.002      231   
   1266.892  348.213   -5.386   0.241       -0.308      0.091       232   
   1387.005  348.096   -5.494   0.453       -0.296      -0.825      233   
   878.003   349.389   -5.623   0.259       -0.536      -0.048      234   
   974.129   352.436   -5.556   0.483       -0.385      -0.033      235   
   1181.763  351.785   -5.344   0.219       -0.287      0.045       236   
   1674.232  350.552   -5.357   0.268       -0.615      0.170       237   
   1323.106  354.925   -5.164   0.301       -0.359      -0.004      238   
   786.072   354.400   -5.435   0.206       -0.580      0.053       239   
   1003.112  354.866   -5.713   0.333       -0.301      0.185       240   
   1412.468  357.078   -5.117   0.318       -0.266      -0.040      241   
   426.243   355.853   -5.151   0.402       -0.227      -0.913      242   
   900.208   358.403   -5.235   0.488       -0.102      0.530       243   
   1775.590  359.854   -5.705   0.231       -0.432      0.052       244   
   948.902   360.289   -4.902   0.510       -0.345      0.467       245   
   1060.698  359.395   -5.127   0.340       -0.416      0.194       246   
   1260.948  359.040   -5.489   0.247       -0.583      0.095       247   
   743.523   361.938   -5.213   0.624       -0.211      0.967       248   
   960.038   362.116   -4.684   0.572       -0.183      0.094       249   
   1064.247  361.139   -5.159   0.267       0.454       -0.217      250   
   1153.563  362.973   -5.303   0.200       -0.267      -0.008      251   
   1319.483  359.776   -5.139   0.297       -0.120      0.195       252   
   456.061   362.794   -5.338   0.481       -0.174      -0.575      253   
   1411.039  359.901   -5.154   0.296       -0.255      -0.041      254   
   1683.242  362.613   -5.587   0.259       -0.217      -0.498      255   
   1165.945  365.158   -4.139   0.577       -0.045      -0.884      256   
   997.588   365.280   -4.272   0.392       0.256       0.349       257   
   629.958   367.217   -5.687   0.250       -0.422      -0.012      258   
   972.558   366.909   -5.491   0.222       -0.527      0.096       259   
   1139.537  366.971   -5.699   0.249       -0.431      -0.061      260   
   732.915   367.531   -5.631   0.291       -0.589      -0.106      261   
   59.134    372.155   -5.261   0.254       -0.359      0.312       262   
   1225.914  366.744   -5.283   0.294       -0.524      0.078       263   
   403.523   369.040   -5.354   0.269       -0.551      0.240       264   
   587.555   371.119   -5.662   0.264       0.324       -0.025      265   
   1286.966  372.078   -5.159   0.534       -0.269      0.892       266   
   1095.972  372.235   -5.304   0.287       -0.568      0.232       267   
   1271.094  374.407   -4.078   0.645       0.242       -0.582      268   
   1822.138  374.177   -5.449   0.468       -0.234      -0.204      269   
   1026.814  374.403   -5.702   0.253       -0.377      0.009       270   
   1062.540  377.113   -5.033   0.295       -0.248      0.067       271   
   1185.741  375.695   -5.577   0.437       0.214       -0.040      272   
   723.461   378.020   -5.729   0.322       -0.307      -0.063      273   
   1150.143  376.643   -3.740   0.744       -0.346      -0.031      274   
   800.832   382.610   -5.243   0.568       -0.259      -0.513      275   
   954.045   382.488   -5.580   0.365       -0.861      0.006       276   
   1060.523  379.920   -5.055   0.294       -0.276      0.079       277   
   1144.466  386.475   -4.844   0.331       -0.081      0.199       278   
   1484.449  388.810   -4.991   0.338       0.279       -0.239      279   
   1350.680  388.759   -5.331   0.235       -0.211      -0.060      280   
   1997.315  390.152   -5.456   0.253       -0.390      0.105       281   
   161.967   389.168   -4.845   0.386       -0.260      -0.915      282   
   860.107   387.221   -5.191   0.271       -0.648      0.233       283   
   1516.013  395.188   -5.703   0.383       -0.244      0.461       284   
   658.018   390.835   -5.066   0.576       -0.111      -0.289      285   
   1003.812  391.218   -4.317   0.578       -0.928      -0.028      286   
   1496.281  394.449   -5.001   0.455       -0.064      -0.400      287   
   532.155   394.934   -5.612   0.419       -0.230      0.035       288   
   1078.807  392.058   -5.185   0.483       -0.192      0.176       289   
   1384.211  393.115   -5.667   0.224       -0.509      -0.004      290   
   882.589   394.051   -5.249   0.590       0.405       -0.030      291   
   1141.281  391.310   -4.853   0.360       -0.136      0.144       292   
   1089.055  394.863   -5.375   0.572       -0.385      -0.121      293   
   1193.981  394.021   -5.329   0.292       0.415       -0.138      294   
   1482.325  393.044   -5.020   0.318       0.063       -0.342      295   
   812.407   398.071   -5.330   0.547       -0.384      -0.289      296   
   861.219   400.035   -5.088   0.514       -0.104      0.113       297   
   1160.287  399.490   -4.908   0.364       0.194       0.828       298   
   1541.218  400.014   -5.182   0.573       0.155       0.390       299   
   1040.141  402.389   -5.250   0.249       -0.356      -0.050      300   
   1224.007  405.412   -5.530   0.496       -0.075      -0.208      301   
   832.135   402.961   -5.479   0.337       -0.496      -0.301      302   
   1665.008  402.170   -5.611   0.455       -0.241      -0.106      303   
   1058.057  403.082   -4.933   0.535       -0.330      0.597       304   
   1126.034  402.880   -4.637   0.593       0.445       0.618       305   
   1492.296  401.359   -5.665   0.268       -0.631      0.032       306   
   285.987   406.989   -5.216   0.473       -0.048      -0.703      307   
   888.622   404.635   -4.940   0.550       0.523       0.166       308   
   1636.947  405.919   -5.751   0.257       -0.692      0.015       309   
   1203.734  406.866   -5.735   0.254       -0.582      -0.011      310   
   503.587   408.627   -5.572   0.229       -0.277      -0.113      311   
   1152.226  407.326   -5.239   0.326       -0.576      0.040       312   
   821.560   408.945   -5.085   0.325       -0.076      -0.023      313   
   938.254   412.170   -4.740   0.486       -0.223      0.472       314   
   1323.119  414.972   -5.169   0.570       -0.493      -0.227      315   
   1185.702  415.342   -5.742   0.266       -0.430      -0.028      316   
   1430.171  413.989   -5.279   0.309       -0.336      0.160       317   
   757.132   423.133   -5.464   0.525       -0.292      -0.247      318   
   482.023   423.255   -5.266   0.267       -0.116      -0.206      319   
   1043.033  419.976   -4.413   0.550       -0.527      -0.554      320   
   1964.144  420.854   -5.758   0.371       -0.141      0.638       321   
   251.036   423.038   -5.747   0.340       -0.166      0.346       322   
   526.078   423.279   -5.367   0.420       -0.204      -0.010      323   
   1261.016  421.133   -5.201   0.284       -0.349      0.214       324   
   655.677   423.608   -5.727   0.253       -0.308      -0.012      325   
   1104.777  425.006   -5.457   0.425       -0.131      -0.006      326   
   889.033   424.591   -5.345   0.262       0.389       0.332       327   
   933.204   425.999   -5.045   0.595       -0.262      0.527       328   
   1321.099  425.775   -5.136   0.501       -0.191      0.561       329   
   339.998   430.155   -5.729   0.288       -0.362      -0.129      330   
   450.795   429.905   -5.785   0.323       -0.229      0.190       331   
   1755.080  427.891   -5.705   0.229       -0.403      0.113       332   
   370.787   431.182   -5.174   0.257       -0.200      0.193       333   
   1154.051  428.621   -4.827   0.527       0.255       0.066       334   
   1608.745  429.098   -5.704   0.347       -0.028      0.013       335   
   753.621   435.251   -5.281   0.550       -0.416      -0.155      336   
   1055.947  427.203   -4.773   0.557       -0.258      -0.671      337   
   1112.887  430.844   -5.563   0.220       0.091       0.073       338   
   1248.567  435.370   -4.726   0.496       0.381       -0.407      339   
   1586.423  429.947   -5.354   0.287       -0.563      -0.007      340   
   1259.386  430.311   -4.680   0.566       -0.513      0.552       341   
   299.150   441.027   -5.679   0.392       -0.336      -0.142      342   
   534.244   435.162   -5.486   0.494       0.131       0.018       343   
   985.633   436.549   -5.501   0.325       0.262       0.095       344   
   747.984   435.745   -5.491   0.354       -0.504      -0.156      345   
   811.566   436.529   -5.682   0.321       -0.332      -0.089      346   
   501.583   435.016   -5.190   0.244       -0.201      0.190       347   
   1142.698  438.014   -4.164   0.628       0.115       -0.228      348   
   582.918   440.479   -4.918   0.304       -0.128      0.097       349   
   1070.686  438.044   -5.477   0.355       -0.907      -0.484      350   
   1174.961  438.695   -5.501   0.208       -0.503      -0.040      351   
   708.175   439.842   -5.184   0.535       -0.217      0.089       352   
   380.867   439.209   -5.644   0.338       -0.380      -0.106      353   
   1467.981  440.922   -5.349   0.488       -0.349      -0.460      354   
   467.356   442.314   -5.403   0.533       -0.155      -0.098      355   
   670.536   442.274   -5.554   0.290       0.235       -0.310      356   
   897.401   441.885   -5.604   0.345       -0.236      -0.182      357   
   435.359   440.461   -5.674   0.396       -0.302      0.069       358   
   990.470   443.845   -5.219   0.236       0.834       0.747       359   
   1252.637  443.167   -3.856   0.641       0.195       -0.979      360   
   1010.021  445.490   -5.317   0.259       -0.553      -0.031      361   
   1132.577  443.887   -5.731   0.275       -0.543      -0.094      362   
   1156.895  443.017   -4.452   0.571       -0.139      -0.079      363   
   1189.297  444.969   -5.093   0.625       0.606       0.327       364   
   1242.465  444.286   -5.596   0.312       -0.616      -0.001      365   
   582.479   443.747   -5.035   0.313       -0.002      0.148       366   
   673.731   445.716   -5.426   0.404       0.635       -0.456      367   
   747.252   445.392   -4.845   0.595       0.073       0.384       368   
   1345.149  446.187   -5.191   0.438       -0.212      0.065       369   
   1666.318  445.932   -5.656   0.217       -0.369      -0.002      370   
   919.017   452.629   -5.333   0.585       -0.130      -0.461      371   
   1103.057  445.340   -4.808   0.502       0.233       0.079       372   
   261.202   446.497   -5.695   0.294       -0.259      -0.372      373   
   350.575   444.862   -5.739   0.360       -0.331      -0.115      374   
   958.505   449.512   -5.654   0.249       -0.280      -0.046      375   
   756.641   452.416   -5.228   0.398       -0.571      -0.904      376   
   881.328   449.675   -4.904   0.544       -0.289      -0.120      377   
   1421.457  454.370   -5.662   0.377       -0.359      -0.129      378   
   837.537   456.621   -4.930   0.667       0.229       0.546       379   
   1323.561  457.046   -5.452   0.493       -0.385      -0.113      380   
   869.991   458.293   -5.073   0.306       -0.193      -0.300      381   
   1009.043  453.971   -5.351   0.296       0.103       0.273       382   
   751.155   455.398   -5.177   0.331       -0.955      0.160       383   
   789.961   458.916   -4.786   0.341       -0.007      -0.811      384   
   985.300   456.729   -4.936   0.630       -0.352      -0.379      385   
   502.174   457.895   -5.170   0.456       -0.728      -0.008      386   
   823.813   460.214   -5.408   0.204       -0.399      0.022       387   
   1064.017  460.023   -3.701   0.516       -0.717      -0.906      388   
   1171.199  460.369   -5.476   0.524       -0.260      -0.073      389   
   1197.550  460.478   -5.378   0.244       0.383       0.113       390   
   726.629   458.337   -5.271   0.539       0.033       0.040       391   
   1122.095  463.599   -4.321   0.550       -0.216      -0.278      392   
   868.705   460.295   -5.080   0.269       -0.109      0.351       393   
   1406.867  456.559   -5.502   0.468       -0.215      0.314       394   
   634.686   465.111   -5.582   0.418       -0.201      -0.174      395   
   838.160   463.110   -5.506   0.310       -0.441      -0.104      396   
   794.194   464.478   -5.090   0.399       0.768       0.235       397   
   717.530   471.214   -5.424   0.349       -0.579      0.625       398   
   1036.957  463.511   -3.974   0.540       -0.097      -0.347      399   
   938.903   468.099   -5.204   0.553       -0.055      0.627       400   
   1201.621  466.247   -5.316   0.373       0.346       0.260       401   
   1075.276  470.516   -5.251   0.290       -0.296      0.109       402   
   1269.556  471.236   -5.037   0.308       0.160       0.106       403   
   649.338   469.893   -5.681   0.319       -0.304      -0.031      404   
   1243.937  470.074   -4.008   0.478       -0.273      -0.300      405   
   1344.008  475.241   -4.656   0.553       -0.647      -0.374      406   
   784.354   471.334   -5.517   0.331       -0.533      0.073       407   
   66.140    474.169   -5.736   0.359       -0.152      0.518       408   
   288.117   474.100   -5.753   0.344       -0.198      0.511       409   
   954.639   474.600   -4.469   0.515       -0.602      -0.018      410   
   1382.997  476.618   -5.006   0.354       -0.559      -0.081      411   
   1854.076  473.832   -5.837   0.271       -0.542      0.046       412   
   856.565   475.489   -4.781   0.602       -0.401      -0.085      413   
   1260.185  474.546   -5.288   0.319       -0.599      0.071       414   
   1695.904  476.639   -5.694   0.345       0.004       -0.313      415   
   713.703   475.762   -5.273   0.257       -0.530      0.171       416   
   467.718   476.162   -5.198   0.284       -0.383      0.211       417   
   610.504   479.173   -5.487   0.261       -0.158      -0.223      418   
   885.572   483.146   -4.677   0.557       -0.552      -0.195      419   
   1049.944  479.153   -4.232   0.587       0.286       -0.724      420   
   1036.333  482.861   -4.878   0.356       -0.146      -0.555      421   
   1192.861  480.009   -5.307   0.528       -0.200      -0.079      422   
   665.826   483.782   -4.907   0.353       0.141       -0.517      423   
   948.411   481.384   -4.544   0.524       -0.237      0.033       424   
   976.012   483.623   -5.108   0.244       -0.279      -0.082      425   
   1059.921  482.026   -4.146   0.418       0.999       0.737       426   
   1380.879  479.775   -5.074   0.346       -0.040      0.287       427   
   815.651   483.706   -5.646   0.242       -0.579      0.018       428   
   588.139   481.513   -5.630   0.408       -0.157      -0.632      429   
   735.265   481.726   -5.189   0.567       -0.684      0.080       430   
   787.064   484.011   -5.154   0.511       -0.260      0.167       431   
   1239.775  484.627   -5.755   0.308       -0.270      -0.046      432   
   618.794   488.015   -5.559   0.227       -0.482      0.102       433   
   1123.091  488.435   -5.527   0.252       -0.063      -0.428      434   
   571.157   490.201   -5.331   0.506       -0.383      0.361       435   
   670.203   489.090   -5.103   0.327       0.033       -0.049      436   
   1033.878  487.374   -4.889   0.348       0.775       0.191       437   
   1038.541  488.270   -4.791   0.397       0.462       0.332       438   
   1548.960  494.404   -5.638   0.310       0.130       0.150       439   
   544.905   490.866   -4.877   0.468       0.196       0.167       440   
   663.746   488.232   -4.896   0.326       0.668       0.124       441   
   931.230   493.477   -4.967   0.315       -0.424      -0.368      442   
   468.429   487.500   -5.678   0.314       -0.236      0.109       443   
   1181.422  491.842   -5.362   0.496       -0.155      -0.049      444   
   633.167   490.255   -4.783   0.462       -0.695      0.024       445   
   751.195   494.433   -5.539   0.304       -0.041      0.066       446   
   1511.260  496.110   -5.425   0.425       -0.345      0.392       447   
   977.670   496.250   -4.192   0.534       0.404       -0.384      448   
   1551.579  496.694   -5.346   0.448       0.681       0.253       449   
   130.534   501.778   -5.370   0.230       -0.398      0.013       450   
   914.664   498.902   -5.387   0.409       -0.096      -0.609      451   
   929.741   496.897   -4.862   0.289       0.291       0.136       452   
   1308.660  500.978   -5.617   0.393       -0.349      -0.007      453   
   1335.122  504.687   -5.682   0.371       -0.224      0.074       454   
   1724.951  500.394   -5.621   0.454       -0.145      0.365       455   
   656.005   501.000   -3.637   0.477       0.127       -0.896      456   
   934.015   499.486   -4.966   0.375       0.755       -0.356      457   
   370.007   503.339   -5.137   0.508       0.086       -0.608      458   
   862.766   502.446   -5.395   0.496       -0.522      -0.159      459   
   994.092   503.180   -5.525   0.246       -0.423      0.013       460   
   808.488   504.009   -4.600   0.570       -0.107      0.592       461   
   1610.216  501.868   -5.304   0.298       -0.443      0.156       462   
   586.814   506.292   -5.205   0.501       -0.218      -0.100      463   
   1076.750  507.217   -5.105   0.576       -0.263      -0.473      464   
   1856.329  509.090   -5.811   0.321       -0.239      0.065       465   
   905.092   508.153   -5.108   0.575       -0.734      -0.602      466   
   965.152   506.817   -5.564   0.237       -0.325      -0.133      467   
   1037.870  507.962   -3.992   0.578       -0.194      0.050       468   
   1186.795  508.214   -5.385   0.264       -0.365      0.003       469   
   1386.591  507.101   -5.310   0.237       -0.555      -0.162      470   
   1558.806  507.240   -5.613   0.221       -0.317      0.062       471   
   1151.283  509.174   -3.582   0.418       -0.159      -0.359      472   
   1199.246  511.527   -5.059   0.344       -0.021      0.010       473   
   794.532   508.497   -5.154   0.275       -0.249      0.274       474   
   1979.048  510.080   -5.714   0.404       -0.132      -0.300      475   
   1098.753  513.998   -4.484   0.509       -0.342      0.352       476   
   995.351   513.139   -5.266   0.549       -0.310      0.102       477   
   626.806   515.842   -5.694   0.264       -0.442      -0.067      478   
   926.605   516.550   -3.785   0.669       -0.006      0.303       479   
   1327.802  516.762   -5.629   0.406       -0.498      -0.064      480   
   1373.685  518.497   -5.557   0.244       -0.643      -0.055      481   
   1035.389  519.741   -3.777   0.411       -0.132      -0.261      482   
   1227.127  518.999   -4.991   0.496       -0.631      -0.025      483   
   1047.638  519.624   -4.848   0.614       -0.696      -0.108      484   
   1593.594  522.868   -5.180   0.267       -0.350      -0.012      485   
   896.788   525.364   -5.537   0.449       -0.310      -0.027      486   
   405.315   526.384   -5.622   0.332       0.134       -0.256      487   
   1130.155  523.475   -5.252   0.260       -0.450      -0.397      488   
   1289.915  522.672   -5.025   0.537       0.794       -0.844      489   
   1809.998  523.203   -5.752   0.377       -0.220      -0.058      490   
   1069.573  524.279   -4.751   0.511       -0.100      -0.576      491   
   1297.921  523.417   -5.425   0.238       -0.776      -0.330      492   
   1639.811  524.132   -5.192   0.484       -0.003      0.925       493   
   1094.428  524.201   -3.742   0.495       -0.524      0.013       494   
   1120.710  527.143   -4.813   0.339       -0.524      0.209       495   
   1663.158  525.967   -5.710   0.243       0.090       0.545       496   
   950.063   525.621   -4.529   0.493       -0.332      0.087       497   
   1191.917  525.144   -5.517   0.370       -0.374      -0.004      498   
   1904.196  528.061   -5.857   0.259       -0.369      0.025       499   
   1154.124  528.298   -5.115   0.317       -0.266      0.121       500   
   1376.601  520.957   -5.176   0.598       -0.531      0.077       501   
   1592.992  523.431   -5.221   0.277       -0.358      0.170       502   
   233.993   528.195   -5.709   0.333       -0.200      -0.164      503   
   1000.701  529.152   -5.294   0.549       -0.368      -0.181      504   
   1146.585  528.341   -5.143   0.330       -0.387      -0.127      505   
   1217.134  529.047   -5.211   0.566       -0.236      0.080       506   
   690.367   534.085   -5.054   0.434       0.233       -0.764      507   
   962.053   530.021   -4.471   0.505       0.790       -0.507      508   
   1848.478  533.754   -5.085   0.346       -0.103      -0.224      509   
   1202.032  529.953   -3.677   0.542       -0.077      -0.406      510   
   1056.614  532.244   -5.429   0.218       -0.406      0.012       511   
   1120.877  529.591   -4.841   0.344       0.394       0.411       512   
   806.138   536.273   -5.385   0.484       0.202       -0.170      513   
   886.861   534.906   -5.647   0.280       -0.326      0.076       514   
   1020.692  536.841   -4.817   0.372       -0.328      0.664       515   
   1454.113  537.405   -5.121   0.278       0.023       0.210       516   
   826.934   530.329   -5.145   0.559       -0.343      -0.026      517   
   1151.955  531.036   -5.079   0.438       -0.324      0.678       518   
   745.504   539.847   -5.159   0.274       -0.109      0.079       519   
   1848.074  535.923   -5.101   0.326       -0.052      -0.007      520   
   1494.023  541.539   -5.746   0.346       -0.232      -0.555      521   
   1195.061  546.109   -5.558   0.443       -0.231      -0.140      522   
   1612.957  544.042   -5.358   0.489       -0.280      -0.132      523   
   1360.274  544.637   -5.551   0.272       -0.930      -0.497      524   
   778.492   546.033   -5.434   0.504       -0.396      -0.116      525   
   1030.472  546.074   -4.607   0.635       -0.159      -0.356      526   
   1452.390  544.715   -5.089   0.295       0.138       0.125       527   
   891.383   548.130   -5.159   0.578       -0.384      -0.109      528   
   404.745   548.639   -5.581   0.218       -0.838      -0.035      529   
   540.700   549.432   -5.564   0.222       -0.460      0.013       530   
   919.724   548.891   -5.403   0.465       0.254       -0.126      531   
   465.704   549.648   -5.733   0.303       -0.574      -0.118      532   
   1242.716  544.308   -5.332   0.534       -0.183      -0.202      533   
   229.599   553.405   -5.785   0.273       -0.397      -0.112      534   
   826.311   551.747   -4.968   0.560       -0.343      -0.083      535   
   933.587   551.764   -3.469   0.493       0.212       0.114       536   
   1044.001  555.027   -4.183   0.463       -0.192      -0.372      537   
   1344.911  554.605   -5.704   0.297       -0.381      -0.102      538   
   1589.066  555.113   -5.405   0.513       -0.171      0.207       539   
   478.416   555.990   -5.406   0.205       -0.114      0.003       540   
   1465.445  553.323   -5.138   0.344       -0.298      0.169       541   
   1324.108  552.344   -4.980   0.492       -0.773      0.138       542   
   1697.778  557.604   -5.835   0.282       -0.318      -0.450      543   
   1379.149  559.130   -5.310   0.225       -0.199      0.006       544   
   1566.992  559.161   -5.552   0.446       -0.282      0.477       545   
   940.968   560.189   -4.953   0.275       -0.449      -0.197      546   
   948.176   562.994   -4.912   0.303       -0.162      -0.174      547   
   799.433   562.204   -4.829   0.516       0.102       -0.385      548   
   823.160   561.045   -3.905   0.537       -0.149      0.501       549   
   1454.975  565.198   -5.559   0.438       -0.409      -0.041      550   
   994.115   563.103   -5.556   0.320       -0.125      0.207       551   
   888.815   563.931   -5.668   0.346       -0.412      -0.032      552   
   839.445   565.063   -5.498   0.231       -0.041      0.093       553   
   1209.053  566.007   -4.580   0.559       -0.474      -0.406      554   
   1263.355  563.438   -5.283   0.549       -0.405      -0.109      555   
   1398.095  566.019   -4.877   0.486       -0.343      0.278       556   
   961.749   568.026   -5.268   0.224       -0.414      0.200       557   
   580.269   570.314   -5.505   0.390       0.031       -0.735      558   
   695.279   568.042   -5.386   0.558       -0.213      0.146       559   
   1105.790  573.917   -5.486   0.468       -0.337      0.115       560   
   1348.691  568.557   -5.647   0.310       -0.390      -0.048      561   
   1435.900  566.655   -5.321   0.585       -0.355      0.110       562   
   587.223   570.462   -5.127   0.557       0.560       -0.684      563   
   646.893   568.816   -5.632   0.274       -0.602      -0.198      564   
   1016.123  569.479   -5.675   0.311       -0.504      -0.123      565   
   714.645   566.181   -5.607   0.365       -0.133      -0.124      566   
   862.539   571.740   -5.423   0.241       -0.462      -0.106      567   
   342.878   574.450   -5.734   0.272       -0.418      -0.139      568   
   1279.718  570.526   -5.253   0.569       -0.503      -0.019      569   
   1980.000  573.203   -5.854   0.330       -0.238      0.152       570   
   591.215   572.342   -5.404   0.449       0.530       -0.044      571   
   903.915   574.042   -4.375   0.539       -0.686      -0.216      572   
   1355.666  573.725   -4.304   0.675       0.111       -0.432      573   
   959.692   572.605   -5.093   0.337       -0.751      0.667       574   
   981.681   575.580   -5.553   0.255       -0.456      0.043       575   
   1027.697  576.421   -5.397   0.441       -0.396      0.199       576   
   1158.705  576.312   -5.536   0.284       -0.451      0.142       577   
   832.413   579.046   -4.866   0.288       0.006       0.106       578   
   948.385   579.304   -4.679   0.291       0.038       -0.305      579   
   1080.791  577.591   -5.384   0.501       -0.272      -0.008      580   
   1816.011  577.006   -5.636   0.361       0.044       0.040       581   
   875.516   578.105   -4.136   0.542       -0.311      0.357       582   
   1123.880  575.768   -5.043   0.310       -0.228      -0.065      583   
   994.015   580.335   -2.987   0.596       -0.850      0.290       584   
   1048.524  580.612   -5.535   0.377       -0.582      -0.137      585   
   1367.586  581.201   -5.634   0.242       -0.217      0.038       586   
   422.041   584.534   -5.073   0.295       -0.023      -0.074      587   
   1090.789  582.954   -5.361   0.262       -0.601      0.096       588   
   1107.205  582.987   -5.402   0.521       -0.241      -0.115      589   
   1303.602  583.190   -5.614   0.244       -0.680      0.036       590   
   349.188   586.247   -5.073   0.280       -0.066      -0.045      591   
   804.279   584.951   -4.352   0.520       0.581       0.318       592   
   915.454   585.577   -5.526   0.241       -0.159      -0.029      593   
   822.379   583.751   -5.005   0.296       0.169       -0.005      594   
   975.332   585.124   -5.303   0.446       -0.931      0.305       595   
   1039.955  586.738   -5.561   0.272       -0.647      -0.173      596   
   1801.703  587.491   -5.302   0.478       -0.363      0.770       597   
   725.656   589.411   -5.291   0.349       -0.680      -0.290      598   
   761.502   590.068   -5.055   0.316       -0.245      -0.073      599   
   838.113   586.713   -5.302   0.313       0.221       -0.121      600   
   1435.994  588.497   -5.532   0.222       -0.503      0.078       601   
   421.993   585.703   -5.060   0.258       -0.015      0.142       602   
   855.208   589.493   -5.671   0.339       -0.206      -0.139      603   
   1473.761  589.089   -5.630   0.227       -0.372      -0.031      604   
   932.907   589.733   -4.196   0.563       -0.083      -0.618      605   
   947.497   586.723   -4.933   0.339       -0.509      0.699       606   
   1352.686  593.936   -4.874   0.355       -0.474      0.608       607   
   887.370   591.037   -4.288   0.605       0.126       -0.925      608   
   347.820   589.063   -5.097   0.328       -0.123      0.126       609   
   1196.563  589.867   -4.965   0.542       -0.595      -0.130      610   
   1024.093  592.634   -3.463   0.633       0.615       -0.076      611   
   995.900   597.190   -3.657   0.591       0.410       -0.180      612   
   1261.816  595.030   -4.997   0.598       -0.401      0.180       613   
   2007.043  598.397   -5.293   0.284       -0.390      -0.039      614   
   1146.441  595.966   -4.967   0.442       -0.253      0.135       615   
   531.948   597.542   -5.301   0.532       -0.298      -0.161      616   
   1161.471  596.955   -5.580   0.316       -0.255      0.089       617   
   437.969   601.397   -5.252   0.289       0.009       0.587       618   
   717.341   596.969   -5.167   0.293       -0.565      -0.344      619   
   1068.884  598.539   -5.400   0.253       -0.220      -0.297      620   
   1010.329  599.840   -4.268   0.575       -0.233      -0.118      621   
   1657.818  597.107   -5.324   0.254       -0.802      0.128       622   
   682.924   600.233   -5.440   0.506       -0.015      -0.037      623   
   544.071   602.365   -5.277   0.242       -0.369      0.050       624   
   1050.989  601.050   -3.976   0.551       0.110       0.551       625   
   1189.099  600.595   -5.601   0.288       -0.271      -0.097      626   
   2007.063  597.886   -5.312   0.262       -0.441      0.188       627   
   1120.731  602.177   -5.652   0.249       -0.388      -0.037      628   
   1360.328  601.172   -5.310   0.263       -0.338      -0.251      629   
   1230.215  602.966   -5.668   0.254       -0.106      0.149       630   
   962.340   605.742   -5.193   0.320       -0.790      0.580       631   
   1380.082  604.010   -5.640   0.364       -0.280      0.021       632   
   1090.963  599.098   -4.532   0.648       -0.567      -0.461      633   
   438.251   603.169   -5.130   0.240       -0.194      0.139       634   
   890.289   605.844   -5.256   0.479       -0.820      -0.347      635   
   1019.002  606.257   -4.522   0.544       -0.438      -0.033      636   
   993.475   608.979   -4.868   0.302       0.099       0.020       637   
   1154.698  608.148   -5.235   0.445       -0.888      -0.071      638   
   1409.359  610.772   -5.230   0.291       -0.228      0.099       639   
   865.416   611.102   -5.344   0.224       -0.348      -0.005      640   
   1138.454  610.395   -5.383   0.260       0.127       0.048       641   
   713.953   611.433   -5.544   0.233       -0.606      0.016       642   
   822.862   612.012   -5.567   0.365       -0.212      -0.004      643   
   1507.077  612.277   -5.763   0.322       -0.297      -0.088      644   
   1082.155  612.933   -5.538   0.399       -0.533      -0.106      645   
   386.602   618.431   -5.077   0.280       -0.154      0.254       646   
   990.949   612.572   -4.887   0.342       0.375       0.334       647   
   379.370   615.731   -5.222   0.292       -0.348      0.292       648   
   1242.926  616.798   -5.690   0.283       -0.308      -0.085      649   
   882.744   617.988   -5.443   0.220       -0.262      -0.063      650   
   1161.462  619.710   -4.932   0.278       -0.208      -0.023      651   
   813.826   619.225   -5.399   0.433       -0.490      -0.121      652   
   1058.549  619.907   -3.104   0.586       0.489       -0.616      653   
   1187.243  618.995   -4.453   0.592       -0.590      0.418       654   
   1520.728  622.017   -5.128   0.321       -0.111      -0.412      655   
   958.699   618.143   -4.742   0.363       0.464       0.701       656   
   1170.934  622.227   -4.624   0.644       0.227       -0.521      657   
   2028.249  624.840   -5.855   0.270       -0.244      0.276       658   
   1047.532  623.730   -4.739   0.336       0.115       -0.237      659   
   1033.286  621.875   -3.553   0.640       -0.120      -0.461      660   
   1548.777  623.347   -5.329   0.222       -0.352      0.112       661   
   971.452   621.692   -4.080   0.688       -0.569      -0.905      662   
   1210.027  624.877   -4.135   0.570       -0.212      -0.984      663   
   763.344   623.759   -5.490   0.233       0.018       0.017       664   
   1160.102  621.254   -4.911   0.341       -0.016      -0.043      665   
   743.897   625.393   -5.507   0.373       -0.384      0.308       666   
   1313.223  625.433   -5.715   0.322       -0.249      0.014       667   
   901.885   626.212   -5.439   0.384       -0.447      0.289       668   
   1376.090  625.913   -5.029   0.503       -0.110      0.632       669   
   1489.509  627.471   -5.429   0.234       -0.354      -0.033      670   
   1519.235  623.895   -5.131   0.275       -0.205      0.086       671   
   914.022   626.699   -4.614   0.561       -0.102      -0.226      672   
   1012.187  626.734   -4.997   0.557       -0.602      0.174       673   
   802.927   627.556   -5.208   0.390       -0.848      -0.923      674   
   1436.862  628.156   -5.383   0.486       -0.188      0.532       675   
   874.875   627.543   -4.005   0.648       -0.264      0.408       676   
   797.303   630.077   -5.181   0.239       -0.456      0.257       677   
   838.837   629.990   -4.639   0.572       -0.199      0.521       678   
   1052.379  629.140   -4.962   0.344       0.212       0.208       679   
   1180.540  629.721   -5.561   0.335       -0.195      0.157       680   
   1274.990  629.222   -4.103   0.447       0.368       0.171       681   
   1224.938  631.280   -5.026   0.343       0.170       -0.195      682   
   1332.806  629.857   -5.198   0.412       0.017       0.607       683   
   1959.010  630.616   -5.728   0.215       -0.482      0.018       684   
   820.716   632.922   -3.424   0.581       -0.234      0.105       685   
   864.239   629.914   -3.996   0.581       -0.323      -0.544      686   
   635.973   639.390   -5.541   0.444       -0.105      -0.107      687   
   941.741   634.795   -3.902   0.538       0.777       -0.321      688   
   1033.105  634.284   -5.590   0.248       -0.272      -0.038      689   
   764.069   635.047   -4.670   0.603       -0.155      0.156       690   
   983.021   634.820   -4.145   0.620       -0.257      -0.375      691   
   959.906   635.957   -2.841   0.754       -0.313      -0.716      692   
   1101.211  636.081   -4.052   0.614       -0.063      0.078       693   
   1361.264  636.728   -4.623   0.564       -0.876      0.003       694   
   569.850   639.065   -4.727   0.545       -0.241      -0.931      695   
   965.345   638.896   -4.505   0.535       -0.803      -0.122      696   
   1157.772  641.646   -4.850   0.346       -0.087      -0.241      697   
   832.424   641.520   -5.374   0.491       -0.027      -0.075      698   
   1931.162  640.501   -5.824   0.246       -0.365      -0.007      699   
   536.014   639.168   -5.171   0.298       -0.360      0.323       700   
   870.130   642.131   -5.548   0.247       -0.357      -0.015      701   
   1047.205  643.006   -5.250   0.383       -0.339      -0.168      702   
   205.012   644.178   -5.787   0.291       -0.296      0.289       703   
   1196.962  644.768   -5.279   0.239       -0.308      0.114       704   
   1602.084  646.815   -5.688   0.315       -0.630      0.232       705   
   904.858   644.381   -2.776   0.649       -0.506      0.086       706   
   1080.622  645.738   -5.308   0.299       -0.675      -0.417      707   
   1219.865  642.872   -4.853   0.310       -0.225      -0.011      708   
   1235.464  643.983   -5.213   0.540       -0.385      -0.076      709   
   1416.192  645.409   -5.475   0.225       -0.274      -0.008      710   
   933.139   645.797   -4.338   0.561       0.078       -0.347      711   
   668.839   648.311   -5.300   0.210       -0.259      -0.023      712   
   1155.220  645.123   -4.903   0.344       0.085       0.101       713   
   1477.010  648.115   -4.559   0.653       -0.401      -0.188      714   
   1466.945  650.052   -5.721   0.321       -0.407      -0.104      715   
   888.530   650.368   -5.188   0.530       -0.397      -0.034      716   
   821.991   650.686   -5.367   0.257       -0.130      -0.465      717   
   1138.143  651.292   -5.345   0.209       -0.332      0.098       718   
   1174.562  650.789   -4.614   0.564       -0.162      0.015       719   
   1247.937  650.992   -3.722   0.613       -0.795      -0.273      720   
   545.974   653.834   -5.005   0.307       -0.075      0.249       721   
   837.361   651.656   -3.991   0.592       -0.404      -0.174      722   
   943.584   652.120   -4.222   0.501       0.146       -0.242      723   
   1298.370  651.961   -5.445   0.371       0.151       0.124       724   
   1117.027  654.980   -5.187   0.291       -0.262      0.240       725   
   94.955    654.705   -5.737   0.335       -0.225      0.537       726   
   1092.572  654.288   -5.528   0.305       -0.665      -0.103      727   
   1022.771  655.906   -3.702   0.691       -0.260      -0.102      728   
   1755.413  654.952   -5.604   0.221       -0.408      -0.022      729   
   908.445   657.606   -3.830   0.517       -0.693      -0.140      730   
   923.228   657.859   -5.007   0.318       -0.109      -0.131      731   
   1060.301  656.136   -5.414   0.251       -0.842      0.119       732   
   1624.970  656.190   -5.353   0.428       -0.246      -0.351      733   
   962.078   657.102   -5.668   0.304       -0.384      0.002       734   
   1214.587  656.530   -4.923   0.591       -0.191      -0.414      735   
   1284.951  657.020   -3.529   0.675       0.274       0.232       736   
   1485.672  658.139   -5.186   0.241       0.140       -0.138      737   
   868.411   657.826   -4.901   0.564       -0.158      -0.084      738   
   544.469   655.602   -5.027   0.290       -0.199      -0.128      739   
   844.948   665.208   -3.160   0.507       0.165       0.736       740   
   1081.699  658.354   -4.948   0.592       -0.088      0.273       741   
   1158.399  660.930   -4.016   0.575       -0.270      0.761       742   
   1207.158  659.025   -4.019   0.620       -0.844      -0.416      743   
   1490.380  660.828   -5.135   0.324       -0.097      0.300       744   
   884.513   659.585   -5.334   0.412       -0.207      -0.054      745   
   1309.058  659.447   -5.623   0.311       -0.481      -0.029      746   
   765.676   667.966   -5.405   0.541       -0.183      -0.001      747   
   921.314   659.734   -4.954   0.301       -0.100      0.723       748   
   1029.436  662.513   -5.113   0.530       -0.013      -0.185      749   
   1290.698  663.261   -2.838   0.912       0.226       -0.078      750   
   1234.526  666.506   -4.425   0.538       -0.498      0.145       751   
   1099.064  666.506   -5.208   0.518       -0.324      -0.003      752   
   1163.606  666.208   -5.055   0.573       -0.363      -0.045      753   
   471.064   668.150   -5.422   0.443       -0.250      0.427       754   
   1060.747  666.621   -4.358   0.607       0.538       0.300       755   
   1013.569  664.933   -4.228   0.503       0.303       -0.141      756   
   1212.532  668.726   -4.944   0.502       0.139       -0.092      757   
   1248.680  668.381   -5.223   0.236       -0.127      0.415       758   
   713.858   673.109   -4.823   0.531       -0.317      -0.756      759   
   1458.172  670.315   -5.739   0.321       -0.393      0.005       760   
   1476.022  670.099   -5.630   0.391       -0.185      -0.037      761   
   216.391   674.425   -5.201   0.251       -0.313      0.252       762   
   747.727   672.923   -4.959   0.666       -0.626      0.030       763   
   861.374   671.599   -4.920   0.575       -0.135      0.091       764   
   954.126   672.284   -4.886   0.574       -0.239      0.068       765   
   1080.514  671.807   -5.522   0.282       -0.280      0.175       766   
   699.240   672.801   -5.670   0.272       -0.397      -0.053      767   
   880.715   672.842   -4.798   0.556       -0.126      0.113       768   
   1271.892  673.559   -4.343   0.627       -0.211      -0.708      769   
   971.172   673.563   -4.638   0.614       -0.038      0.013       770   
   1286.878  676.509   -5.144   0.277       0.157       0.258       771   
   1494.082  673.895   -4.928   0.568       -0.282      0.348       772   
   681.579   676.069   -5.690   0.309       -0.370      -0.052      773   
   1144.976  676.655   -5.459   0.242       -0.623      0.086       774   
   655.851   678.265   -5.435   0.349       0.306       -0.054      775   
   1360.585  678.381   -5.455   0.445       0.426       0.162       776   
   1037.016  682.583   -4.774   0.572       -0.418      -0.343      777   
   1331.903  679.121   -4.678   0.431       -0.534      0.039       778   
   1467.564  677.036   -5.584   0.400       -0.541      -0.037      779   
   743.834   679.888   -5.537   0.282       -0.448      0.035       780   
   787.573   680.809   -5.222   0.523       -0.029      -0.098      781   
   959.789   678.814   -2.880   0.640       0.118       0.113       782   
   1229.508  680.112   -5.567   0.424       -0.387      -0.065      783   
   1431.276  680.926   -5.517   0.254       -0.305      -0.023      784   
   1746.027  680.123   -5.494   0.414       -0.303      0.453       785   
   990.859   681.016   -4.290   0.481       0.094       0.344       786   
   35.136    683.323   -5.610   0.334       0.298       0.280       787   
   1117.984  684.013   -5.250   0.230       -0.296      -0.015      788   
   1207.505  682.471   -4.969   0.446       0.636       0.338       789   
   1248.009  682.966   -5.333   0.465       -0.214      -0.200      790   
   1308.609  684.838   -5.051   0.275       -0.016      0.213       791   
   1653.518  684.627   -5.281   0.245       -0.367      0.283       792   
   904.039   681.977   -5.194   0.305       -0.517      0.086       793   
   1400.005  684.203   -4.884   0.485       -0.212      -0.272      794   
   1258.871  682.553   -4.964   0.300       -0.051      -0.106      795   
   876.814   687.174   -5.246   0.213       -0.336      0.125       796   
   1073.569  686.891   -5.293   0.243       -0.338      0.126       797   
   1094.508  688.819   -5.217   0.314       0.045       0.681       798   
   947.915   688.061   -3.669   0.602       -0.640      -0.548      799   
   1499.498  687.795   -5.745   0.325       -0.167      0.373       800   
   1298.298  689.008   -5.230   0.315       -0.997      -0.484      801   
   618.615   692.522   -5.136   0.245       -0.110      0.160       802   
   708.578   691.572   -5.046   0.660       -0.847      -0.374      803   
   722.574   691.421   -5.056   0.511       0.359       -0.080      804   
   1419.805  688.694   -5.037   0.298       0.236       0.359       805   
   1540.038  687.882   -5.281   0.295       -0.350      0.212       806   
   965.677   692.523   -5.326   0.477       -0.035      0.017       807   
   1052.492  692.745   -5.269   0.400       0.144       0.138       808   
   1112.965  691.241   -5.321   0.336       -0.583      0.210       809   
   977.802   693.115   -5.449   0.397       -0.476      -0.258      810   
   291.937   694.990   -5.024   0.576       0.347       -0.613      811   
   638.472   694.443   -5.564   0.284       -0.503      -0.296      812   
   795.950   697.866   -5.109   0.562       -0.070      -0.193      813   
   847.697   694.703   -4.370   0.700       -0.447      0.984       814   
   761.812   695.765   -5.652   0.305       -0.203      -0.064      815   
   1204.745  697.235   -5.211   0.233       -0.329      -0.125      816   
   1016.283  697.235   -3.743   0.566       0.021       0.123       817   
   1094.487  694.970   -5.002   0.250       -0.546      0.011       818   
   1132.547  694.395   -4.245   0.460       0.202       -0.503      819   
   531.472   698.943   -5.443   0.226       -0.423      0.064       820   
   701.473   697.301   -5.551   0.310       -0.654      -0.133      821   
   828.086   701.934   -4.235   0.444       -0.582      0.744       822   
   892.224   698.492   -4.160   0.490       0.335       0.221       823   
   1633.050  700.455   -5.072   0.307       -0.138      -0.409      824   
   1788.673  691.978   -5.332   0.496       -0.274      0.825       825   
   950.394   700.408   -5.453   0.243       -0.226      -0.036      826   
   1068.587  701.789   -4.733   0.359       -0.044      0.768       827   
   1073.950  700.818   -4.737   0.274       0.142       0.869       828   
   195.462   707.540   -5.795   0.268       -0.299      -0.062      829   
   672.250   701.924   -3.686   0.625       -0.618      0.511       830   
   1258.749  702.034   -5.292   0.525       -0.368      0.014       831   
   296.590   703.001   -5.638   0.346       0.026       -0.026      832   
   929.079   703.161   -5.631   0.331       -0.346      -0.075      833   
   969.503   702.239   -5.534   0.322       -0.490      0.057       834   
   1432.115  708.876   -4.881   0.439       0.132       0.675       835   
   1683.240  707.900   -5.796   0.300       -0.298      0.017       836   
   715.722   704.484   -5.568   0.318       -0.595      -0.221      837   
   787.597   706.315   -5.521   0.414       -0.324      -0.283      838   
   857.038   704.005   -3.092   0.582       0.214       0.920       839   
   1196.944  703.601   -5.334   0.345       -0.673      -0.607      840   
   1049.208  703.662   -3.541   0.501       0.131       -0.837      841   
   1271.446  705.823   -5.443   0.267       -0.183      -0.072      842   
   1631.197  702.981   -4.947   0.353       0.334       0.513       843   
   803.950   706.012   -3.745   0.365       -0.577      0.265       844   
   841.877   706.000   -5.241   0.207       -0.287      0.249       845   
   923.210   707.253   -3.172   0.550       -0.051      -0.581      846   
   1101.139  707.083   -5.044   0.568       -0.394      0.535       847   
   1306.112  706.978   -4.066   0.504       -0.077      -0.929      848   
   1392.501  705.190   -5.217   0.300       -0.549      0.278       849   
   733.005   707.967   -4.024   0.553       0.389       -0.503      850   
   1130.943  707.950   -3.667   0.633       0.278       -0.599      851   
   648.078   709.472   -5.073   0.531       -0.251      -0.011      852   
   991.206   710.871   -3.937   0.621       0.456       -0.004      853   
   669.982   711.886   -5.111   0.545       -0.157      -0.949      854   
   1005.439  711.976   -2.940   0.660       0.191       0.019       855   
   1327.942  708.907   -4.365   0.559       -0.172      -0.877      856   
   1264.908  713.271   -5.156   0.282       -0.385      0.264       857   
   553.131   715.611   -5.456   0.523       0.004       -0.589      858   
   1067.570  714.376   -3.603   0.580       -0.246      0.248       859   
   1431.442  712.114   -4.977   0.311       0.297       0.214       860   
   1679.079  716.092   -5.754   0.292       -0.343      -0.342      861   
   718.838   715.058   -5.627   0.301       -0.412      -0.042      862   
   922.619   717.199   -3.485   0.580       0.075       0.263       863   
   1756.843  717.075   -5.769   0.252       -0.350      -0.014      864   
   830.621   718.613   -5.491   0.329       -0.001      0.112       865   
   894.456   723.842   -4.732   0.594       -0.414      -0.036      866   
   690.326   719.592   -5.634   0.324       -0.244      -0.157      867   
   975.967   724.182   -4.613   0.495       -0.276      -0.536      868   
   1372.961  720.364   -5.125   0.384       -0.888      -0.290      869   
   69.725    721.466   -5.375   0.207       -0.351      -0.014      870   
   1072.797  723.085   -4.649   0.278       -0.180      0.177       871   
   1989.371  719.656   -5.884   0.272       -0.264      0.017       872   
   815.035   722.380   -5.524   0.344       -0.039      0.212       873   
   986.568   723.269   -3.274   0.755       0.322       -0.232      874   
   1104.419  722.080   -4.494   0.567       0.064       0.270       875   
   1029.958  723.276   -3.089   0.534       -0.140      0.004       876   
   900.927   723.868   -5.252   0.436       0.384       0.277       877   
   1784.325  727.169   -5.021   0.343       0.072       -0.320      878   
   1011.645  725.035   -3.853   0.447       0.633       -0.415      879   
   1133.340  725.443   -4.131   0.529       0.132       0.296       880   
   1369.496  723.593   -5.214   0.249       -0.228      0.385       881   
   327.164   727.421   -5.729   0.246       -0.336      -0.132      882   
   847.661   724.488   -2.285   0.507       -0.747      0.294       883   
   1042.697  725.640   -4.884   0.578       -0.787      -0.551      884   
   1154.069  725.441   -5.482   0.373       -0.718      -0.046      885   
   1222.405  724.183   -5.144   0.300       -0.385      0.236       886   
   917.896   727.806   -4.261   0.613       0.114       -0.088      887   
   1296.130  726.984   -4.090   0.507       0.562       -0.866      888   
   1122.939  727.898   -5.155   0.540       -0.300      0.088       889   
   1390.784  730.314   -4.989   0.323       0.046       -0.225      890   
   826.932   728.822   -5.475   0.282       -0.482      -0.129      891   
   1267.382  728.801   -5.528   0.237       -0.541      0.092       892   
   1407.077  730.523   -5.249   0.581       -0.037      -0.032      893   
   990.977   730.021   -4.020   0.578       -0.113      0.035       894   
   1075.931  729.183   -4.612   0.351       -0.280      0.475       895   
   1299.986  730.937   -4.726   0.479       -0.139      -0.411      896   
   615.428   733.386   -5.460   0.219       -0.547      -0.048      897   
   859.465   732.277   -5.341   0.567       -0.265      -0.129      898   
   906.304   731.855   -4.289   0.555       0.356       -0.029      899   
   1022.448  733.499   -3.988   0.547       0.210       -0.020      900   
   1173.729  735.237   -4.452   0.553       0.502       0.330       901   
   1782.983  730.809   -4.970   0.341       0.121       0.104       902   
   802.871   736.801   -5.246   0.553       0.300       -0.276      903   
   955.480   736.038   -5.050   0.248       -0.155      -0.076      904   
   1903.547  735.605   -5.533   0.372       -0.884      0.317       905   
   929.825   736.991   -5.229   0.419       -0.636      0.541       906   
   672.971   736.257   -5.295   0.538       -0.198      0.047       907   
   987.879   741.017   -3.733   0.569       0.098       0.082       908   
   1057.623  737.101   -4.093   0.548       -0.492      -0.223      909   
   1576.808  735.548   -5.630   0.334       -0.248      0.208       910   
   431.711   741.874   -5.450   0.264       -0.487      -0.039      911   
   886.326   739.224   -5.128   0.520       0.147       -0.382      912   
   1629.760  745.612   -5.655   0.362       -0.638      0.062       913   
   1074.637  740.755   -4.657   0.357       -0.313      0.765       914   
   1162.751  741.284   -5.129   0.600       -0.248      -0.119      915   
   1446.034  741.019   -5.521   0.462       -0.118      -0.101      916   
   238.591   742.679   -5.502   0.233       -0.302      -0.321      917   
   911.482   741.493   -4.753   0.563       -0.527      -0.229      918   
   987.046   741.103   -3.769   0.624       0.629       -0.106      919   
   1067.992  743.544   -4.861   0.289       0.176       0.450       920   
   1146.074  741.956   -4.246   0.553       -0.273      -0.135      921   
   1280.948  743.414   -4.879   0.579       -0.848      -0.077      922   
   1902.396  740.713   -5.618   0.274       -0.786      -0.244      923   
   940.641   743.715   -4.049   0.607       -0.209      -0.626      924   
   950.965   743.237   -5.073   0.263       -0.884      0.239       925   
   1108.114  744.909   -4.251   0.639       -0.462      -0.410      926   
   1175.746  743.240   -4.970   0.544       -0.026      0.100       927   
   1655.217  745.001   -5.719   0.235       -0.302      0.047       928   
   755.888   746.755   -4.786   0.374       -0.197      0.667       929   
   832.918   744.894   -5.592   0.287       -0.798      -0.112      930   
   961.251   745.818   -5.291   0.361       0.565       -0.078      931   
   1038.016  746.076   -4.595   0.551       -0.271      -0.321      932   
   763.023   746.573   -4.798   0.270       0.053       0.914       933   
   1070.741  744.609   -4.639   0.289       -0.631      -0.503      934   
   453.918   748.009   -4.830   0.692       0.111       0.709       935   
   521.435   749.120   -5.675   0.305       -0.594      -0.212      936   
   1101.784  748.073   -4.373   0.597       -0.392      -0.310      937   
   1433.987  747.932   -4.009   0.545       -0.114      0.523       938   
   719.203   749.136   -4.936   0.527       -0.515      0.372       939   
   1247.974  748.939   -4.097   0.478       0.696       -0.458      940   
   1289.886  748.898   -5.619   0.255       -0.357      0.019       941   
   796.451   751.948   -4.970   0.300       -0.094      0.078       942   
   873.960   750.416   -5.326   0.263       0.042       -0.002      943   
   1015.295  752.557   -5.377   0.345       -0.233      0.303       944   
   1265.643  751.811   -5.151   0.532       -0.305      -0.163      945   
   1447.843  752.430   -4.400   0.420       0.629       -0.530      946   
   966.480   752.322   -4.920   0.659       0.539       -0.159      947   
   757.677   750.706   -4.806   0.358       0.573       0.221       948   
   882.559   756.026   -4.767   0.336       -0.579      -0.492      949   
   1092.200  754.237   -4.561   0.651       0.304       -0.353      950   
   1124.831  754.304   -3.730   0.569       -0.564      0.024       951   
   462.469   757.381   -4.997   0.311       0.045       -0.156      952   
   927.277   753.731   -4.323   0.565       0.262       -0.224      953   
   946.822   754.571   -5.459   0.251       -0.387      0.260       954   
   1022.862  754.852   -2.784   0.638       0.351       -0.044      955   
   1583.135  755.023   -5.437   0.499       -0.130      0.165       956   
   794.934   754.706   -5.045   0.279       -0.020      0.034       957   
   990.296   757.900   -4.740   0.485       -0.124      0.281       958   
   1080.262  756.638   -5.165   0.540       -0.432      -0.392      959   
   1171.288  755.066   -4.382   0.512       -0.725      0.254       960   
   1625.381  755.583   -5.737   0.281       -0.130      -0.130      961   
   913.028   759.058   -3.828   0.481       -0.165      0.057       962   
   1066.004  761.431   -4.652   0.294       0.073       -0.059      963   
   811.454   761.956   -5.363   0.496       -0.330      0.048       964   
   1567.083  763.101   -5.626   0.421       -0.327      -0.056      965   
   1659.920  762.117   -5.407   0.487       -0.687      -0.066      966   
   461.590   759.410   -4.980   0.326       0.354       0.370       967   
   523.210   764.445   -5.268   0.504       -0.137      0.112       968   
   1097.435  763.977   -4.957   0.502       -0.184      0.863       969   
   1454.627  761.539   -5.321   0.487       0.318       0.310       970   
   390.338   766.903   -5.186   0.242       -0.381      0.042       971   
   685.042   765.080   -5.267   0.550       -0.182      0.208       972   
   1006.634  764.864   -5.274   0.221       -0.203      0.263       973   
   1224.026  767.129   -4.968   0.547       -0.408      -0.485      974   
   621.836   766.798   -5.672   0.343       -0.613      -0.035      975   
   740.157   766.840   -5.450   0.405       -0.843      0.075       976   
   831.919   767.686   -5.510   0.297       0.500       0.274       977   
   1139.064  767.062   -3.379   0.374       0.609       -0.066      978   
   1356.518  768.855   -4.847   0.379       0.295       0.108       979   
   1799.904  773.227   -5.798   0.254       -0.338      0.028       980   
   894.532   767.762   -4.942   0.308       -0.138      0.261       981   
   1340.071  771.658   -4.826   0.487       -0.688      -0.020      982   
   637.794   769.189   -5.207   0.492       -0.170      0.162       983   
   884.693   768.314   -4.832   0.339       0.385       0.316       984   
   573.083   772.204   -5.378   0.485       -0.655      -0.397      985   
   1079.478  772.298   -4.849   0.318       0.119       -0.369      986   
   129.968   774.370   -5.098   0.270       -0.173      -0.075      987   
   1032.882  772.115   -2.924   0.564       0.201       -0.332      988   
   1098.611  770.906   -5.227   0.326       0.142       -0.116      989   
   936.785   772.652   -5.362   0.437       -0.399      0.230       990   
   377.283   775.373   -5.584   0.323       -0.596      -0.016      991   
   962.448   776.567   -5.135   0.417       -0.465      0.272       992   
   1045.867  775.426   -2.768   0.635       0.305       -0.927      993   
   1083.536  774.919   -4.754   0.373       -0.101      0.191       994   
   1119.470  774.830   -5.023   0.493       0.514       -0.216      995   
   1015.853  774.799   -4.342   0.512       -0.002      0.227       996   
   1066.502  772.723   -4.659   0.337       0.394       -0.033      997   
   1108.486  775.596   -5.353   0.329       0.052       -0.388      998   
   1353.354  773.178   -4.897   0.313       0.427       0.151       999   
   951.842   777.746   -4.747   0.560       0.032       -0.488      1000  
   814.104   777.604   -4.214   0.445       -0.143      -0.289      1001  
   129.422   777.920   -4.937   0.383       -0.891      -0.626      1002  
   714.224   779.503   -5.645   0.323       -0.102      -0.013      1003  
   1153.991  783.154   -4.700   0.552       -0.202      -0.058      1004  
   1167.991  783.178   -3.994   0.613       0.693       -0.017      1005  
   1292.627  782.239   -5.725   0.295       -0.260      -0.117      1006  
   1471.053  776.160   -4.934   0.609       -0.682      -0.671      1007  
   372.172   781.471   -5.576   0.265       -0.854      0.193       1008  
   1310.204  782.224   -5.522   0.349       0.144       0.085       1009  
   841.646   781.165   -4.161   0.554       0.069       0.504       1010  
   797.941   784.406   -4.514   0.528       0.330       -0.325      1011  
   1044.806  784.723   -2.141   0.610       0.887       0.062       1012  
   529.432   786.138   -5.607   0.254       -0.588      -0.142      1013  
   602.945   792.163   -5.265   0.564       0.005       0.013       1014  
   777.044   783.923   -4.988   0.575       -0.402      0.001       1015  
   862.700   787.531   -5.389   0.232       -0.551      0.167       1016  
   919.663   786.753   -3.389   0.601       0.307       -0.163      1017  
   1331.958  790.060   -3.941   0.368       -0.107      -0.385      1018  
   969.940   788.901   -5.245   0.239       -0.481      -0.017      1019  
   1499.884  788.247   -5.533   0.261       -0.535      -0.669      1020  
   958.166   786.661   -4.993   0.304       -0.321      0.535       1021  
   1917.926  789.138   -5.840   0.317       -0.199      0.538       1022  
   1076.440  789.565   -5.080   0.435       -0.682      0.694       1023  
   1267.022  790.009   -4.298   0.569       -0.486      -0.386      1024  
   1350.650  790.988   -5.326   0.436       -0.726      0.547       1025  
   1408.131  789.945   -4.921   0.532       -0.616      -0.713      1026  
   1227.019  787.904   -4.730   0.547       -0.099      -0.101      1027  
   1360.482  790.932   -5.105   0.541       -0.365      0.146       1028  
   359.405   785.632   -5.684   0.338       -0.241      0.041       1029  
   678.758   793.205   -5.633   0.327       -0.051      0.031       1030  
   873.767   794.008   -5.290   0.226       -0.539      0.010       1031  
   1277.161  793.314   -5.115   0.568       0.123       -0.189      1032  
   989.590   794.096   -5.341   0.389       -0.756      0.352       1033  
   1092.264  794.576   -5.376   0.434       -0.463      0.362       1034  
   1167.745  793.649   -5.286   0.532       -0.682      0.049       1035  
   1765.351  794.604   -5.770   0.236       -0.525      -0.041      1036  
   612.487   794.955   -5.674   0.325       -0.312      -0.042      1037  
   1026.951  795.036   -3.947   0.581       0.225       -0.495      1038  
   1287.287  793.617   -4.844   0.598       0.145       -0.274      1039  
   1037.794  797.433   -3.441   0.494       -0.127      -0.793      1040  
   1295.822  801.497   -4.093   0.584       -0.229      0.257       1041  
   1399.990  797.262   -4.815   0.535       -0.763      0.186       1042  
   1564.863  796.978   -5.447   0.524       -0.274      0.607       1043  
   156.997   798.148   -5.745   0.308       -0.175      0.059       1044  
   465.871   799.729   -5.300   0.287       -0.405      0.035       1045  
   1172.653  792.800   -4.420   0.550       -0.535      0.008       1046  
   1058.420  799.057   -4.011   0.542       0.910       0.076       1047  
   1124.419  799.319   -5.460   0.276       -0.244      -0.029      1048  
   935.543   801.155   -4.973   0.561       0.300       -0.388      1049  
   1014.241  801.063   -5.598   0.253       -0.339      -0.014      1050  
   773.468   797.075   -4.000   0.612       -0.103      -0.171      1051  
   813.822   802.580   -5.262   0.518       -0.240      -0.081      1052  
   944.589   802.908   -5.341   0.269       -0.656      0.196       1053  
   973.099   802.262   -5.379   0.429       -0.208      -0.172      1054  
   1150.849  805.099   -4.551   0.725       -0.282      -0.318      1055  
   870.684   804.872   -4.750   0.476       -0.145      0.520       1056  
   1045.314  805.975   -5.065   0.306       -0.491      0.249       1057  
   886.607   807.829   -4.424   0.333       0.338       -0.077      1058  
   924.698   810.137   -3.614   0.549       -0.314      -0.072      1059  
   991.173   809.672   -5.005   0.270       -0.425      0.194       1060  
   857.082   807.673   -5.354   0.334       -0.465      -0.264      1061  
   1090.126  809.671   -5.375   0.434       -0.311      0.037       1062  
   1331.115  809.699   -5.379   0.209       -0.352      0.065       1063  
   680.700   813.118   -4.692   0.400       0.077       -0.661      1064  
   819.675   809.952   -4.116   0.550       -0.491      0.058       1065  
   1351.572  808.022   -5.120   0.272       -0.067      0.283       1066  
   271.073   811.118   -5.705   0.384       -0.152      0.426       1067  
   959.240   810.495   -5.146   0.399       0.090       0.528       1068  
   1241.948  810.980   -5.499   0.422       -0.076      -0.185      1069  
   238.887   812.310   -5.746   0.328       -0.247      -0.139      1070  
   876.470   810.786   -4.809   0.368       0.878       -0.426      1071  
   893.886   812.382   -4.991   0.299       0.331       -0.626      1072  
   1071.317  812.054   -3.394   0.632       -0.498      -0.385      1073  
   1158.498  812.164   -4.674   0.629       0.521       0.243       1074  
   1251.786  813.122   -4.229   0.690       0.034       -0.028      1075  
   767.461   814.336   -3.405   0.587       -0.064      -0.609      1076  
   1040.975  812.532   -4.737   0.396       0.232       0.652       1077  
   1107.664  807.917   -3.075   0.403       -0.222      -0.351      1078  
   1375.207  813.870   -5.650   0.285       -0.337      -0.067      1079  
   1181.217  814.512   -5.560   0.309       -0.421      -0.035      1080  
   844.904   813.822   -3.655   0.557       -0.302      0.411       1081  
   1146.186  812.966   -5.206   0.280       -0.095      0.214       1082  
   574.067   816.043   -5.121   0.579       0.183       -0.847      1083  
   1025.455  815.201   -4.245   0.456       0.184       0.416       1084  
   477.391   817.376   -5.452   0.219       -0.486      -0.083      1085  
   688.232   817.232   -5.140   0.315       -0.024      0.022       1086  
   1054.152  817.594   -5.339   0.321       0.070       -0.525      1087  
   1435.720  819.590   -5.208   0.259       -0.276      -0.007      1088  
   508.966   819.699   -5.340   0.214       -0.267      -0.114      1089  
   881.690   815.865   -4.147   0.334       -0.494      0.387       1090  
   1094.771  820.322   -5.254   0.223       -0.487      0.092       1091  
   1255.170  819.532   -4.179   0.587       0.109       -0.324      1092  
   912.978   821.033   -3.370   0.522       -0.441      0.046       1093  
   1407.632  823.027   -4.938   0.321       -0.076      -0.083      1094  
   860.115   822.107   -3.747   0.617       -0.480      0.089       1095  
   528.143   825.440   -5.653   0.296       -0.581      0.054       1096  
   1159.113  822.750   -5.394   0.313       -0.934      0.025       1097  
   1708.890  823.008   -5.798   0.291       -0.196      0.260       1098  
   438.669   827.948   -5.732   0.272       -0.169      -0.011      1099  
   988.090   821.329   -4.748   0.340       0.708       0.462       1100  
   1002.165  825.975   -4.766   0.298       -0.406      0.330       1101  
   1124.731  823.696   -5.592   0.293       -0.348      -0.149      1102  
   348.737   826.757   -5.318   0.226       -0.325      -0.029      1103  
   1230.517  825.174   -4.563   0.509       0.412       0.099       1104  
   749.271   825.518   -5.558   0.392       -0.356      -0.089      1105  
   640.570   827.922   -5.566   0.355       -0.256      -0.206      1106  
   771.588   826.827   -5.551   0.238       -0.459      -0.005      1107  
   1472.766  827.120   -5.156   0.487       -0.377      -0.115      1108  
   574.585   821.899   -5.419   0.487       -0.429      0.111       1109  
   874.133   829.101   -5.002   0.313       0.230       0.363       1110  
   930.915   829.602   -4.090   0.475       0.741       0.302       1111  
   1299.116  829.769   -5.056   0.252       -0.111      -0.211      1112  
   615.962   830.113   -5.163   0.519       -0.177      -0.426      1113  
   888.058   830.429   -3.379   0.706       -0.242      0.668       1114  
   1026.225  831.564   -3.045   0.407       0.107       0.273       1115  
   1290.464  833.295   -4.953   0.438       0.373       -0.372      1116  
   673.352   833.418   -5.106   0.550       -0.722      -0.279      1117  
   1059.536  832.488   -5.098   0.260       -0.430      0.092       1118  
   681.337   834.291   -5.174   0.440       0.102       0.217       1119  
   1146.786  834.532   -5.471   0.241       -0.448      -0.303      1120  
   1393.619  832.429   -4.904   0.287       -0.184      0.373       1121  
   544.186   837.014   -5.491   0.241       -0.422      0.080       1122  
   1095.952  835.405   -4.759   0.572       -0.264      -0.172      1123  
   876.272   833.742   -4.914   0.380       -0.021      0.148       1124  
   1082.074  838.013   -5.445   0.388       -0.223      -0.040      1125  
   1181.654  840.354   -4.641   0.383       -0.698      0.379       1126  
   1371.171  838.020   -5.646   0.342       -0.504      -0.088      1127  
   1470.944  834.209   -5.632   0.368       -0.405      0.031       1128  
   856.462   838.898   -3.110   0.656       -0.216      -0.762      1129  
   145.916   834.306   -5.705   0.304       -0.222      0.011       1130  
   817.345   839.784   -5.263   0.516       0.033       0.038       1131  
   1043.846  839.661   -4.650   0.615       -0.587      0.010       1132  
   1345.214  841.640   -5.175   0.299       -0.318      0.145       1133  
   888.405   842.191   -5.186   0.315       0.292       0.148       1134  
   925.717   841.641   -4.892   0.334       0.311       -0.655      1135  
   943.971   837.607   -1.936   0.643       -0.083      -0.901      1136  
   1109.943  841.090   -3.913   0.644       -0.399      0.272       1137  
   494.843   845.816   -5.644   0.309       0.004       -0.034      1138  
   793.516   843.986   -5.469   0.480       -0.392      -0.110      1139  
   928.415   842.314   -4.937   0.338       -0.163      0.538       1140  
   747.907   843.035   -4.771   0.560       -0.465      -0.270      1141  
   783.408   842.792   -5.240   0.500       0.237       -0.352      1142  
   957.713   843.072   -4.936   0.519       0.013       -0.110      1143  
   1297.721  843.216   -4.563   0.323       0.293       0.884       1144  
   1360.872  843.342   -3.214   0.733       0.138       -0.115      1145  
   1290.204  843.286   -4.737   0.340       0.404       0.995       1146  
   1386.032  843.852   -5.531   0.247       -0.426      -0.263      1147  
   712.881   844.979   -5.415   0.229       -0.232      0.251       1148  
   838.882   846.787   -4.955   0.303       0.019       0.118       1149  
   903.157   845.542   -5.301   0.232       -0.390      -0.277      1150  
   615.508   846.446   -5.653   0.301       -0.332      -0.220      1151  
   1130.015  846.010   -2.684   0.451       -0.744      0.291       1152  
   1326.638  847.096   -5.283   0.250       -0.401      0.467       1153  
   673.992   845.416   -4.296   0.540       -0.041      -0.240      1154  
   692.424   846.937   -3.030   0.721       -0.577      0.323       1155  
   1159.366  849.010   -5.030   0.298       -0.400      -0.317      1156  
   892.793   846.720   -4.980   0.359       0.313       -0.457      1157  
   1177.923  845.186   -4.799   0.362       -0.043      0.007       1158  
   731.596   848.114   -3.984   0.673       0.098       -0.180      1159  
   980.539   849.622   -3.956   0.598       0.559       -0.342      1160  
   1012.078  849.202   -5.416   0.292       -0.631      -0.523      1161  
   1058.760  848.823   -3.904   0.572       -0.339      0.093       1162  
   1308.104  848.839   -4.118   0.429       0.425       -0.906      1163  
   768.158   852.388   -5.097   0.278       -0.037      0.118       1164  
   836.369   849.434   -4.877   0.310       -0.178      -0.339      1165  
   478.826   845.989   -5.657   0.355       -0.401      0.015       1166  
   1112.293  852.361   -5.533   0.338       -0.119      -0.168      1167  
   1206.992  857.231   -4.156   0.481       -0.083      -0.274      1168  
   1194.197  853.534   -5.522   0.314       -0.595      -0.045      1169  
   1577.248  854.579   -5.573   0.361       0.393       -0.236      1170  
   438.221   855.892   -5.729   0.286       -0.236      -0.220      1171  
   777.593   852.673   -3.860   0.754       0.082       -0.307      1172  
   879.089   851.221   -1.367   0.598       0.224       0.452       1173  
   1124.812  853.946   -2.521   0.491       -0.356      -0.289      1174  
   2001.590  856.540   -5.792   0.236       -0.298      0.029       1175  
   710.372   855.538   -5.559   0.258       -0.106      0.222       1176  
   754.990   855.065   -5.174   0.354       -0.951      -0.316      1177  
   991.928   861.111   -3.359   0.650       -0.111      -0.313      1178  
   1269.861  855.887   -5.195   0.566       -0.002      0.048       1179  
   1858.354  857.989   -5.209   0.241       -0.293      -0.001      1180  
   795.043   857.182   -5.646   0.285       -0.339      -0.082      1181  
   967.368   857.993   -5.106   0.211       -0.209      0.168       1182  
   630.253   857.751   -5.617   0.239       -0.224      -0.028      1183  
   1069.384  860.363   -4.976   0.342       -0.141      -0.216      1184  
   1288.067  857.485   -5.299   0.243       -0.628      0.086       1185  
   926.067   853.651   -4.102   0.473       -0.194      0.286       1186  
   891.782   856.457   -2.826   0.515       -0.184      0.372       1187  
   1388.134  859.617   -5.482   0.222       -0.377      0.002       1188  
   679.226   860.791   -5.262   0.491       -0.296      0.164       1189  
   981.739   861.126   -3.185   0.663       -0.399      0.214       1190  
   75.490    863.233   -5.734   0.291       -0.297      0.281       1191  
   1219.437  861.185   -5.049   0.294       -0.168      0.523       1192  
   1348.102  867.372   -4.539   0.641       -0.100      0.904       1193  
   949.015   863.512   -5.408   0.264       -0.539      0.028       1194  
   808.079   865.666   -5.534   0.262       -0.568      -0.002      1195  
   875.004   865.025   -3.446   0.557       -0.661      -0.985      1196  
   1035.270  864.899   -5.511   0.417       -0.375      0.030       1197  
   1254.793  866.692   -5.074   0.266       -0.242      -0.022      1198  
   1329.496  861.363   -4.899   0.539       -0.771      0.498       1199  
   831.909   867.079   -5.167   0.210       -0.503      0.005       1200  
   1050.706  867.157   -4.554   0.597       -0.167      -0.111      1201  
   1167.943  863.114   -4.905   0.528       -0.309      -0.235      1202  
   1780.398  871.496   -5.741   0.343       -0.301      -0.207      1203  
   992.381   869.002   -5.399   0.221       -0.034      -0.138      1204  
   1010.160  870.435   -5.461   0.225       -0.369      0.022       1205  
   1153.695  870.249   -3.959   0.562       -0.145      0.435       1206  
   846.109   873.530   -5.066   0.270       -0.243      0.239       1207  
   1108.652  872.284   -3.877   0.551       -0.069      0.193       1208  
   1438.233  874.355   -4.959   0.335       -0.652      0.051       1209  
   642.032   870.776   -5.520   0.427       0.120       0.052       1210  
   1089.437  873.286   -5.551   0.315       -0.397      -0.157      1211  
   1138.927  873.044   -3.915   0.457       -0.248      0.662       1212  
   758.895   873.754   -5.604   0.269       -0.543      -0.065      1213  
   1206.795  874.423   -5.324   0.280       -0.229      -0.510      1214  
   1359.013  875.664   -4.913   0.214       -0.056      -0.511      1215  
   269.661   871.039   -5.791   0.300       -0.286      0.329       1216  
   799.942   874.342   -5.507   0.278       -0.507      -0.116      1217  
   540.113   876.625   -5.298   0.252       -0.518      -0.235      1218  
   820.102   875.414   -4.916   0.549       -0.370      0.062       1219  
   904.972   876.007   -5.559   0.234       -0.394      -0.070      1220  
   963.196   875.894   -4.631   0.386       -0.201      -0.842      1221  
   1347.967  873.909   -5.233   0.340       -0.389      0.194       1222  
   967.754   874.625   -4.685   0.342       -0.440      0.998       1223  
   1184.649  876.708   -4.868   0.596       -0.081      0.009       1224  
   1314.138  876.942   -5.471   0.423       -0.311      -0.049      1225  
   1370.522  877.673   -5.331   0.232       0.193       -0.256      1226  
   1593.724  877.220   -5.233   0.202       -0.413      0.055       1227  
   1046.252  878.719   -3.660   0.554       -0.604      0.234       1228  
   1291.617  878.974   -5.157   0.208       -0.123      0.323       1229  
   1033.029  884.835   -3.884   0.597       0.169       -0.345      1230  
   1056.729  878.937   -4.255   0.569       -0.104      -0.049      1231  
   622.264   881.583   -5.566   0.206       -0.159      -0.002      1232  
   963.595   878.151   -4.627   0.318       0.679       -0.198      1233  
   50.702    881.699   -5.553   0.205       -0.447      0.072       1234  
   1075.132  882.065   -3.634   0.668       0.366       -0.386      1235  
   1114.835  878.480   -3.046   0.633       0.847       0.067       1236  
   932.610   882.987   -3.861   0.624       -0.601      0.267       1237  
   945.899   882.990   -2.279   0.704       0.307       0.798       1238  
   1445.624  883.115   -4.887   0.318       -0.219      0.880       1239  
   730.321   880.187   -4.650   0.468       -0.538      -0.126      1240  
   998.314   885.193   -4.860   0.473       -0.588      0.208       1241  
   1018.714  884.497   -3.260   0.488       -0.558      0.144       1242  
   1485.261  884.930   -5.616   0.236       -0.449      0.049       1243  
   828.914   886.441   -5.544   0.243       -0.527      -0.007      1244  
   1126.188  886.625   -5.056   0.263       -0.953      -0.563      1245  
   917.057   887.939   -3.465   0.628       0.112       0.081       1246  
   1153.393  888.262   -3.876   0.311       0.769       0.701       1247  
   1227.106  888.644   -5.020   0.338       0.186       0.164       1248  
   1425.999  889.411   -5.194   0.582       0.409       -0.048      1249  
   1196.926  894.403   -3.111   0.779       -0.119      0.818       1250  
   172.069   891.077   -5.679   0.382       -0.151      -0.275      1251  
   1139.957  892.737   -5.024   0.337       -0.107      0.138       1252  
   1172.475  889.511   -5.091   0.292       -0.291      0.179       1253  
   1309.531  886.482   -5.076   0.459       -0.448      -0.391      1254  
   498.200   889.257   -5.727   0.276       -0.357      0.020       1255  
   860.170   895.265   -4.606   0.385       -0.553      -0.382      1256  
   1058.149  892.313   -5.125   0.584       -0.120      -0.226      1257  
   1110.020  893.045   -3.133   0.660       -0.413      0.504       1258  
   1274.562  893.690   -4.935   0.541       -0.129      -0.037      1259  
   1456.886  892.086   -5.666   0.386       -0.491      -0.044      1260  
   1222.717  891.236   -4.867   0.326       0.249       -0.181      1261  
   1543.106  896.135   -5.227   0.248       -0.180      -0.060      1262  
   835.413   893.654   -3.329   0.756       -0.522      -0.271      1263  
   798.904   896.703   -4.839   0.547       0.004       -0.034      1264  
   878.375   895.875   -5.390   0.234       -0.524      -0.192      1265  
   1045.835  897.231   -5.063   0.246       -0.132      -0.023      1266  
   1431.888  895.525   -5.536   0.276       -0.010      -0.123      1267  
   524.055   891.532   -5.628   0.370       -0.383      0.177       1268  
   769.027   897.975   -4.115   0.493       0.398       -0.424      1269  
   919.792   898.990   -4.385   0.582       -0.537      0.126       1270  
   865.318   898.392   -4.460   0.266       -0.162      0.200       1271  
   934.655   899.142   -5.259   0.232       -0.527      0.313       1272  
   1338.861  900.192   -4.287   0.504       -0.340      0.029       1273  
   1283.243  900.475   -5.606   0.273       -0.251      -0.010      1274  
   1195.305  903.055   -4.794   0.288       0.332       -0.173      1275  
   709.895   901.971   -4.713   0.572       -0.168      -0.063      1276  
   954.136   902.994   -5.215   0.541       -0.184      -0.544      1277  
   997.423   903.084   -5.538   0.317       -0.509      0.056       1278  
   1380.389  903.058   -5.673   0.317       -0.471      -0.094      1279  
   964.975   903.615   -2.309   0.857       -0.206      0.755       1280  
   1118.073  904.013   -2.787   0.629       -0.141      0.827       1281  
   1212.930  902.661   -3.962   0.620       0.391       -0.059      1282  
   1591.295  904.984   -5.590   0.442       -0.178      0.246       1283  
   858.274   903.448   -4.672   0.393       0.179       0.068       1284  
   1018.995  907.328   -4.773   0.534       -0.266      0.033       1285  
   1267.579  907.183   -4.795   0.463       -0.111      -0.212      1286  
   1302.194  906.833   -3.592   0.401       -0.456      0.956       1287  
   233.380   908.217   -5.510   0.408       -0.231      0.732       1288  
   839.893   907.753   -4.556   0.507       0.176       0.293       1289  
   1094.891  914.482   -4.739   0.546       -0.528      -0.015      1290  
   1180.845  907.795   -5.408   0.373       -0.638      -0.336      1291  
   879.135   908.655   -5.222   0.509       -0.267      -0.122      1292  
   1751.040  907.229   -5.737   0.361       -0.147      0.216       1293  
   790.444   913.197   -4.788   0.579       -0.351      -0.161      1294  
   1068.123  909.908   -5.454   0.225       -0.302      -0.044      1295  
   1729.986  909.386   -5.591   0.288       0.406       -0.369      1296  
   1169.971  915.128   -4.050   0.664       -0.883      -0.860      1297  
   1192.943  907.653   -4.846   0.370       0.044       0.215       1298  
   1324.010  910.979   -2.731   0.395       0.730       0.979       1299  
   1281.227  910.764   -4.224   0.523       -0.423      -0.223      1300  
   1423.764  912.359   -4.867   0.409       0.101       0.459       1301  
   1550.187  912.307   -5.503   0.474       -0.035      -0.399      1302  
   636.912   911.701   -5.546   0.442       -0.240      0.069       1303  
   912.987   912.910   -3.027   0.636       -0.242      0.081       1304  
   1161.362  914.559   -4.475   0.568       -0.564      -0.218      1305  
   1255.620  914.399   -5.168   0.457       -0.543      -0.428      1306  
   1367.932  914.395   -5.154   0.556       -0.423      0.142       1307  
   1111.920  914.920   -4.767   0.567       -0.736      0.207       1308  
   810.733   914.737   -5.410   0.296       -0.363      0.334       1309  
   959.441   916.702   -4.328   0.445       -0.392      -0.458      1310  
   1126.996  915.421   -4.708   0.561       -0.599      0.256       1311  
   1421.236  915.454   -4.906   0.313       0.421       0.128       1312  
   779.869   920.115   -4.815   0.564       -0.508      -0.178      1313  
   830.901   919.921   -5.396   0.390       0.478       -0.338      1314  
   841.125   920.364   -2.971   0.885       -0.015      -0.719      1315  
   853.584   919.266   -4.308   0.557       0.090       0.016       1316  
   711.802   922.767   -5.078   0.576       -0.245      0.110       1317  
   903.012   922.173   -5.569   0.247       -0.334      -0.128      1318  
   1206.902  922.087   -5.570   0.234       -0.465      -0.070      1319  
   555.634   922.012   -5.320   0.287       0.221       -0.356      1320  
   1000.653  923.873   -3.725   0.690       -0.362      -0.257      1321  
   919.945   926.289   -5.111   0.282       -0.221      -0.077      1322  
   1054.115  927.142   -4.074   0.531       0.043       -0.585      1323  
   1112.198  924.213   -3.501   0.736       0.816       0.817       1324  
   1324.323  928.011   -4.041   0.444       -0.375      0.595       1325  
   1033.122  926.970   -4.643   0.489       -0.201      -0.252      1326  
   1162.448  926.832   -5.623   0.312       -0.572      -0.050      1327  
   1258.603  932.177   -4.618   0.548       0.374       0.872       1328  
   1508.287  926.006   -5.689   0.388       -0.336      -0.188      1329  
   990.532   926.156   -5.107   0.459       0.694       0.148       1330  
   1176.754  928.519   -5.612   0.281       -0.206      0.009       1331  
   1370.795  929.414   -5.247   0.253       -0.122      0.048       1332  
   1840.227  928.368   -5.313   0.486       -0.285      -0.241      1333  
   862.582   929.649   -3.309   0.481       -0.194      0.155       1334  
   1123.058  929.919   -4.921   0.602       -0.338      -0.936      1335  
   1192.158  929.301   -5.300   0.209       -0.279      0.191       1336  
   1244.413  927.372   -5.274   0.266       -0.265      0.142       1337  
   680.112   930.203   -5.544   0.372       -0.158      -0.265      1338  
   691.479   931.007   -5.472   0.244       -0.001      0.117       1339  
   728.313   931.097   -5.265   0.553       -0.234      0.134       1340  
   664.429   931.957   -4.793   0.351       0.276       0.863       1341  
   1043.109  932.171   -5.532   0.308       -0.299      -0.155      1342  
   659.231   930.968   -4.923   0.293       0.222       0.893       1343  
   842.622   932.743   -5.550   0.369       -0.217      -0.199      1344  
   928.987   932.528   -5.377   0.255       -0.304      -0.051      1345  
   1332.583  932.732   -5.549   0.434       -0.364      -0.057      1346  
   1393.195  936.949   -5.274   0.331       -0.480      0.355       1347  
   960.976   935.324   -5.525   0.351       -0.251      -0.084      1348  
   1229.765  935.773   -5.408   0.239       -0.249      0.184       1349  
   1109.035  936.623   -4.203   0.616       0.049       -0.138      1350  
   1273.975  934.512   -5.389   0.518       -0.528      -0.017      1351  
   8.502     940.292   -5.255   0.222       -0.325      0.200       1352  
   1096.876  938.591   -5.362   0.379       -0.471      0.571       1353  
   754.017   933.427   -3.708   0.360       -0.721      -0.392      1354  
   794.273   940.033   -4.716   0.558       -0.046      0.010       1355  
   1074.762  939.805   -5.526   0.373       -0.530      -0.011      1356  
   1546.141  940.244   -5.566   0.225       -0.400      0.012       1357  
   873.350   941.498   -4.399   0.442       0.036       0.214       1358  
   1258.269  938.987   -4.910   0.362       0.133       0.199       1359  
   1291.492  940.902   -5.451   0.248       -0.838      -0.058      1360  
   1390.595  940.363   -5.173   0.305       -0.298      0.364       1361  
   1640.118  938.949   -5.673   0.331       -0.236      -0.140      1362  
   1025.169  945.187   -5.217   0.359       0.137       0.680       1363  
   1434.560  943.081   -5.690   0.334       -0.309      -0.025      1364  
   1004.951  945.910   -4.810   0.315       0.090       -0.257      1365  
   1039.560  944.202   -5.247   0.546       -0.066      -0.023      1366  
   689.272   939.562   -5.319   0.560       0.010       0.173       1367  
   770.776   945.586   -5.155   0.520       -0.146      0.163       1368  
   860.844   946.740   -5.261   0.533       -0.380      0.030       1369  
   813.892   947.271   -5.064   0.527       -0.463      -0.152      1370  
   568.238   947.909   -5.547   0.448       -0.105      0.005       1371  
   893.329   950.004   -4.926   0.288       0.131       -0.156      1372  
   1139.681  946.286   -5.181   0.344       -0.464      0.224       1373  
   344.837   948.971   -5.348   0.362       -0.439      0.378       1374  
   826.815   950.280   -5.196   0.258       -0.435      0.121       1375  
   943.474   947.928   -5.118   0.498       0.081       -0.591      1376  
   1164.488  946.998   -4.328   0.583       -0.300      -0.188      1377  
   663.689   943.518   -2.788   0.640       -0.420      0.815       1378  
   927.897   948.846   -4.335   0.648       0.322       -0.180      1379  
   1003.926  948.666   -4.994   0.296       -0.065      0.210       1380  
   1379.246  948.758   -5.092   0.576       -0.040      -0.169      1381  
   1025.448  952.960   -4.829   0.395       0.529       0.532       1382  
   1746.182  956.599   -5.594   0.438       -0.326      0.264       1383  
   891.543   952.119   -4.878   0.308       -0.161      -0.131      1384  
   964.350   954.810   -4.127   0.605       -0.566      0.150       1385  
   1279.859  960.658   -4.781   0.578       0.122       0.091       1386  
   1470.062  955.128   -4.446   0.394       -0.250      -0.677      1387  
   725.283   956.347   -5.546   0.238       -0.429      -0.034      1388  
   769.021   960.978   -4.645   0.591       -0.696      -0.333      1389  
   1349.576  957.128   -5.528   0.340       -0.252      -0.191      1390  
   593.901   959.059   -5.475   0.490       -0.081      -0.649      1391  
   795.039   956.779   -5.383   0.538       -0.110      0.141       1392  
   1061.879  957.994   -4.389   0.623       0.245       0.009       1393  
   1263.635  957.697   -4.986   0.294       0.062       0.343       1394  
   1357.820  961.189   -4.978   0.370       0.385       0.240       1395  
   682.914   958.740   -5.159   0.524       -0.159      -0.392      1396  
   1018.781  961.693   -5.370   0.270       -0.695      -0.066      1397  
   1482.563  962.565   -5.400   0.215       -0.474      0.083       1398  
   473.203   963.941   -4.960   0.557       -0.309      0.314       1399  
   1070.490  963.973   -5.039   0.507       -0.384      -0.309      1400  
   1247.904  963.039   -4.384   0.504       -0.303      -0.162      1401  
   973.746   964.736   -3.543   0.540       -0.317      -0.813      1402  
   1283.859  963.245   -4.620   0.489       -0.243      -0.018      1403  
   814.893   967.006   -5.395   0.345       0.183       0.076       1404  
   910.077   966.925   -3.930   0.528       0.049       -0.151      1405  
   1053.022  967.187   -5.403   0.513       -0.401      -0.076      1406  
   1087.679  967.000   -4.289   0.602       -0.809      -0.487      1407  
   548.905   968.083   -4.597   0.621       -0.444      -0.021      1408  
   890.331   967.946   -4.137   0.577       -0.083      0.692       1409  
   963.434   967.554   -4.413   0.575       -0.343      -0.139      1410  
   1169.937  966.924   -5.362   0.258       -0.170      0.046       1411  
   759.579   970.835   -5.218   0.406       0.058       -0.773      1412  
   1006.026  970.383   -5.495   0.389       -0.123      0.046       1413  
   1157.024  971.018   -4.961   0.544       -0.328      0.319       1414  
   555.726   968.867   -5.672   0.288       -0.139      -0.080      1415  
   752.684   969.940   -4.962   0.294       0.167       0.088       1416  
   823.233   972.195   -5.445   0.369       -0.220      -0.242      1417  
   1255.915  973.857   -4.973   0.267       -0.300      -0.006      1418  
   1699.189  972.151   -5.759   0.300       -0.602      -0.178      1419  
   418.859   976.968   -4.921   0.329       -0.098      0.706       1420  
   421.464   973.482   -4.947   0.271       0.318       0.824       1421  
   469.060   975.448   -5.114   0.330       -0.758      0.412       1422  
   1189.226  973.951   -4.045   0.493       0.738       0.276       1423  
   837.196   976.182   -5.542   0.320       -0.377      -0.077      1424  
   1128.068  974.685   -5.157   0.597       -0.603      -0.257      1425  
   1357.398  972.008   -4.799   0.340       0.415       0.338       1426  
   985.531   976.462   -3.951   0.552       -0.420      0.115       1427  
   1080.561  976.346   -5.332   0.213       -0.244      0.321       1428  
   1320.265  981.871   -5.290   0.515       -0.077      -0.187      1429  
   1239.965  978.081   -3.470   0.703       0.119       0.611       1430  
   1254.685  975.893   -4.960   0.295       0.162       0.296       1431  
   1278.540  978.418   -5.588   0.309       -0.039      -0.066      1432  
   261.896   982.319   -4.996   0.320       -0.078      -0.610      1433  
   678.290   981.263   -4.904   0.302       0.257       0.008       1434  
   1024.634  978.949   -4.782   0.564       -0.509      0.017       1435  
   1062.613  978.705   -5.293   0.537       -0.147      -0.082      1436  
   467.682   977.314   -5.167   0.232       -0.297      0.213       1437  
   630.414   981.763   -5.187   0.216       -0.174      -0.143      1438  
   897.567   980.184   -5.449   0.307       -0.958      -0.077      1439  
   1226.223  980.679   -5.588   0.236       -0.347      0.048       1440  
   1089.265  982.453   -5.163   0.601       0.286       -0.171      1441  
   1148.122  982.245   -5.344   0.261       -0.626      -0.499      1442  
   1366.178  982.259   -4.211   0.603       -0.483      -0.251      1443  
   618.160   989.570   -3.894   0.556       0.014       -0.764      1444  
   927.774   983.859   -4.366   0.667       0.031       -0.305      1445  
   1324.873  985.353   -4.112   0.646       -0.772      0.086       1446  
   261.313   984.624   -5.064   0.291       -0.219      0.287       1447  
   676.146   985.230   -4.897   0.321       0.354       0.217       1448  
   829.261   987.018   -4.999   0.274       -0.116      0.023       1449  
   1246.639  988.226   -5.555   0.427       -0.050      -0.042      1450  
   205.149   994.169   -5.062   0.280       -0.168      -0.039      1451  
   231.288   993.034   -5.750   0.262       -0.358      -0.150      1452  
   782.820   991.066   -5.206   0.552       -0.357      0.125       1453  
   919.198   993.450   -4.973   0.342       -0.587      0.104       1454  
   982.758   991.193   -3.830   0.539       0.315       0.810       1455  
   1054.642  995.298   -4.937   0.304       0.122       -0.240      1456  
   817.308   993.375   -4.829   0.544       -0.135      -0.222      1457  
   1749.348  992.167   -5.761   0.347       -0.267      -0.159      1458  
   886.961   995.657   -5.383   0.292       -0.867      0.113       1459  
   632.201   995.289   -4.286   0.623       -0.466      0.388       1460  
   1357.918  998.607   -4.953   0.339       -0.333      0.135       1461  
   206.487   992.424   -5.064   0.314       -0.220      -0.213      1462  
   1005.890  1001.509  -5.169   0.574       0.090       0.238       1463  
   1073.042  996.992   -3.965   0.451       0.426       0.620       1464  
   1510.655  993.823   -5.259   0.257       -0.473      0.138       1465  
   917.196   996.205   -5.000   0.321       -0.104      0.369       1466  
   1376.209  1000.827  -5.037   0.296       -0.055      0.224       1467  
   772.425   1002.337  -5.510   0.272       -0.229      -0.093      1468  
   605.698   1003.817  -4.990   0.626       -0.478      0.367       1469  
   676.008   1004.055  -2.796   0.552       -0.469      0.809       1470  
   790.511   1004.987  -5.511   0.256       -0.479      -0.117      1471  
   1136.792  1004.863  -5.412   0.511       -0.334      -0.119      1472  
   1154.069  1005.105  -4.753   0.595       -0.692      -0.237      1473  
   1356.222  1002.670  -5.021   0.314       0.198       0.244       1474  
   1773.859  1005.140  -5.456   0.367       -0.202      0.933       1475  
   1374.475  1003.549  -5.018   0.267       -0.194      -0.061      1476  
   637.827   1008.681  -5.210   0.242       -0.239      -0.023      1477  
   1263.195  1004.500  -5.257   0.564       -0.302      -0.064      1478  
   663.975   1013.055  -4.948   0.523       -0.298      -0.341      1479  
   1090.017  1007.693  -5.446   0.438       -0.131      0.059       1480  
   618.019   1005.942  -5.090   0.522       -0.324      0.153       1481  
   923.398   1012.197  -5.196   0.483       0.143       0.268       1482  
   1007.462  1008.787  -5.110   0.310       -0.366      0.189       1483  
   1213.499  1011.616  -4.870   0.558       -0.204      0.025       1484  
   1307.497  1012.872  -4.519   0.401       0.039       0.417       1485  
   882.088   1011.845  -5.363   0.470       -0.380      0.122       1486  
   955.387   1013.971  -4.932   0.285       0.174       -0.106      1487  
   506.006   1012.911  -5.588   0.383       -0.158      0.139       1488  
   1062.895  1014.277  -4.926   0.305       -0.205      -0.546      1489  
   1551.711  1013.297  -5.448   0.216       -0.437      0.104       1490  
   255.893   1014.178  -5.692   0.280       -0.378      -0.083      1491  
   1292.093  1013.822  -5.660   0.312       -0.214      0.063       1492  
   1017.009  1014.160  -4.845   0.525       0.055       -0.038      1493  
   1114.101  1016.413  -5.646   0.280       -0.674      -0.118      1494  
   1159.415  1018.030  -5.326   0.478       0.565       0.193       1495  
   1202.465  1019.920  -4.869   0.660       -0.363      -0.005      1496  
   1363.900  1017.988  -5.151   0.513       -0.172      -0.293      1497  
   581.359   1019.379  -4.909   0.300       0.264       0.646       1498  
   931.870   1021.123  -4.884   0.352       -0.025      0.092       1499  
   1075.825  1017.604  -5.164   0.343       0.695       -0.265      1500  
   531.295   1022.689  -5.747   0.291       -0.321      -0.139      1501  
   587.369   1018.732  -4.845   0.295       -0.215      0.489       1502  
   640.445   1022.092  -4.720   0.574       0.544       0.426       1503  
   953.982   1018.094  -4.827   0.327       0.091       -0.016      1504  
   731.964   1023.961  -5.612   0.276       -0.290      -0.093      1505  
   1241.749  1023.718  -5.642   0.273       -0.508      0.011       1506  
   930.066   1022.852  -4.810   0.301       0.203       -0.218      1507  
   1034.407  1019.904  -4.668   0.488       -0.119      -0.205      1508  
   1055.329  1023.390  -5.190   0.281       -0.384      0.256       1509  
   1206.658  1023.493  -4.717   0.636       0.711       -0.035      1510  
   665.526   1024.015  -5.670   0.318       -0.205      -0.005      1511  
   709.130   1025.925  -5.328   0.514       -0.033      -0.295      1512  
   1454.575  1026.881  -5.777   0.279       -0.288      -0.077      1513  
   1079.744  1024.011  -4.582   0.638       0.130       0.005       1514  
   1287.942  1021.922  -3.883   0.547       -0.392      -0.055      1515  
   1332.325  1027.937  -5.685   0.291       -0.460      -0.021      1516  
   1403.003  1026.844  -5.614   0.252       -0.078      0.101       1517  
   974.901   1028.048  -3.927   0.539       0.431       -0.879      1518  
   1196.979  1027.745  -5.311   0.281       0.477       0.533       1519  
   826.181   1030.025  -5.299   0.538       -0.212      -0.174      1520  
   630.802   1033.298  -5.057   0.540       0.033       -0.755      1521  
   645.931   1030.737  -5.508   0.223       -0.606      -0.082      1522  
   1525.394  1031.748  -5.767   0.311       -0.178      -0.153      1523  
   1136.349  1034.627  -5.433   0.461       -0.538      -0.043      1524  
   1343.480  1033.958  -5.064   0.545       -0.707      0.342       1525  
   234.160   1035.675  -5.599   0.205       -0.408      -0.038      1526  
   587.054   1037.241  -3.886   0.564       -0.643      0.954       1527  
   725.363   1037.080  -4.902   0.545       0.335       -0.128      1528  
   952.037   1036.461  -5.094   0.574       -0.217      -0.107      1529  
   1080.696  1042.552  -5.092   0.516       -0.555      -0.105      1530  
   1367.267  1039.276  -4.846   0.548       0.282       0.117       1531  
   840.831   1040.157  -4.604   0.549       -0.312      0.891       1532  
   1057.016  1037.379  -4.759   0.594       -0.590      -0.239      1533  
   1398.705  1041.880  -5.038   0.264       -0.240      -0.036      1534  
   2027.299  1041.079  -5.332   0.554       -0.504      0.653       1535  
   974.155   1044.603  -5.022   0.317       0.008       0.136       1536  
   1086.245  1042.248  -5.502   0.390       0.035       0.005       1537  
   1169.084  1041.584  -5.137   0.558       -0.064      -0.322      1538  
   1626.965  1046.130  -5.701   0.312       -0.151      -0.095      1539  
   1638.353  1042.750  -5.555   0.217       -0.677      -0.165      1540  
   542.958   1044.088  -5.054   0.480       -0.195      -0.101      1541  
   737.905   1039.568  -5.198   0.302       -0.502      0.000       1542  
   1051.824  1043.365  -3.893   0.627       -0.064      -0.379      1543  
   1160.220  1043.397  -5.507   0.316       -0.620      -0.166      1544  
   1206.016  1044.878  -5.548   0.245       0.071       0.014       1545  
   1222.766  1045.375  -5.689   0.265       -0.357      -0.034      1546  
   1256.397  1044.973  -4.652   0.583       -0.345      0.487       1547  
   1375.150  1048.319  -5.055   0.593       0.240       -0.220      1548  
   879.837   1048.307  -4.892   0.563       -0.424      0.272       1549  
   929.318   1047.964  -4.787   0.612       -0.414      -0.066      1550  
   1270.921  1047.592  -5.386   0.325       0.410       0.798       1551  
   1675.537  1045.499  -5.808   0.263       -0.246      0.047       1552  
   755.873   1050.020  -5.431   0.440       -0.275      -0.104      1553  
   1037.188  1050.128  -5.440   0.320       -0.011      0.517       1554  
   1021.956  1050.773  -5.607   0.242       -0.530      0.148       1555  
   1588.414  1051.940  -5.693   0.261       -0.616      -0.026      1556  
   952.047   1057.987  -4.432   0.538       -0.335      0.099       1557  
   973.827   1048.680  -4.923   0.325       -0.266      -0.035      1558  
   1395.737  1051.545  -5.264   0.260       -0.026      0.509       1559  
   318.119   1051.825  -5.692   0.360       -0.222      0.506       1560  
   802.794   1053.743  -5.417   0.475       -0.333      0.249       1561  
   1259.388  1056.055  -5.364   0.520       -0.397      -0.121      1562  
   1701.186  1056.170  -4.774   0.312       0.051       0.069       1563  
   1143.004  1056.836  -4.808   0.581       -0.321      -0.268      1564  
   1160.037  1057.016  -3.208   0.619       0.088       -0.040      1565  
   1283.728  1057.025  -5.176   0.593       -0.308      -0.253      1566  
   1337.839  1058.135  -5.481   0.483       -0.439      -0.176      1567  
   1036.591  1057.799  -5.298   0.339       -0.368      0.953       1568  
   994.083   1059.484  -5.392   0.240       -0.643      -0.108      1569  
   888.700   1061.519  -5.442   0.217       -0.361      0.014       1570  
   913.810   1060.659  -5.228   0.322       -0.258      0.203       1571  
   934.492   1062.534  -5.267   0.515       -0.568      0.132       1572  
   1115.172  1067.267  -4.577   0.464       0.068       0.034       1573  
   762.015   1061.707  -5.044   0.564       -0.197      -0.222      1574  
   1737.981  1062.479  -5.052   0.372       -0.524      0.248       1575  
   1364.127  1067.017  -5.346   0.486       0.055       0.023       1576  
   609.992   1068.089  -5.518   0.456       -0.198      0.084       1577  
   1279.734  1070.164  -5.264   0.361       0.932       0.173       1578  
   1413.842  1068.982  -5.096   0.487       -0.368      -0.321      1579  
   260.689   1072.797  -5.227   0.239       -0.345      -0.065      1580  
   841.877   1073.429  -5.297   0.403       0.990       0.241       1581  
   1155.402  1070.696  -5.602   0.257       -0.645      -0.012      1582  
   1258.815  1071.050  -4.997   0.488       -0.626      -0.144      1583  
   787.946   1071.909  -4.584   0.610       -0.189      -0.313      1584  
   1784.237  1072.054  -5.424   0.452       -0.081      0.089       1585  
   1026.567  1073.056  -4.271   0.574       -0.023      -0.017      1586  
   724.441   1075.826  -5.170   0.266       -0.561      0.172       1587  
   1048.504  1074.914  -5.554   0.349       -0.245      -0.074      1588  
   1062.823  1077.075  -5.052   0.271       -0.182      -0.144      1589  
   1283.020  1075.845  -5.218   0.245       0.191       0.778       1590  
   994.333   1082.429  -5.023   0.621       -0.056      0.180       1591  
   818.194   1084.173  -5.060   0.616       -0.280      -0.513      1592  
   829.195   1080.824  -5.184   0.249       -0.109      -0.109      1593  
   1299.111  1079.086  -4.835   0.397       0.341       -0.666      1594  
   949.361   1081.496  -5.160   0.534       -0.883      -0.158      1595  
   1709.162  1082.124  -5.414   0.471       -0.223      0.938       1596  
   517.798   1084.265  -5.283   0.236       -0.356      0.126       1597  
   714.924   1081.795  -5.496   0.258       -0.735      -0.235      1598  
   1161.955  1082.986  -5.003   0.519       -0.449      -0.915      1599  
   1246.095  1082.791  -4.947   0.534       -0.284      0.970       1600  
   1610.596  1083.190  -5.574   0.216       -0.395      0.036       1601  
   493.185   1085.079  -5.585   0.390       -0.195      0.446       1602  
   1067.657  1084.147  -4.934   0.348       0.001       -0.637      1603  
   905.965   1086.194  -5.169   0.436       -0.460      -0.103      1604  
   1001.967  1092.667  -3.998   0.260       0.901       0.247       1605  
   989.848   1087.693  -5.596   0.276       -0.538      0.024       1606  
   1460.965  1085.449  -5.742   0.304       -0.205      -0.405      1607  
   57.881    1091.702  -5.784   0.249       -0.516      -0.077      1608  
   875.559   1090.867  -4.828   0.344       0.439       0.572       1609  
   2014.859  1089.041  -5.842   0.291       -0.287      0.124       1610  
   806.025   1090.209  -4.327   0.565       0.071       -0.654      1611  
   943.067   1091.256  -4.043   0.693       -0.076      0.306       1612  
   1573.165  1091.049  -5.365   0.547       -0.209      0.758       1613  
   952.921   1091.129  -4.348   0.535       -0.275      -0.361      1614  
   971.922   1093.092  -4.707   0.545       -0.500      0.114       1615  
   1126.416  1093.615  -5.414   0.212       -0.430      0.088       1616  
   1286.814  1093.456  -5.203   0.231       -0.121      0.217       1617  
   693.108   1094.049  -5.138   0.522       -0.299      0.036       1618  
   1661.790  1091.127  -5.811   0.295       -0.196      -0.051      1619  
   1073.172  1097.931  -4.906   0.321       -0.033      0.297       1620  
   1223.832  1097.515  -5.317   0.225       -0.567      -0.065      1621  
   1108.941  1103.747  -5.034   0.544       -0.236      -0.083      1622  
   85.026    1101.632  -5.391   0.230       -0.532      0.008       1623  
   335.254   1104.778  -5.197   0.269       -0.236      0.140       1624  
   1331.873  1102.024  -4.818   0.485       0.002       0.156       1625  
   888.085   1103.031  -3.945   0.602       -0.559      0.109       1626  
   1071.536  1101.107  -4.888   0.292       0.019       0.187       1627  
   1086.946  1104.788  -5.166   0.589       -0.126      0.278       1628  
   1189.554  1105.921  -5.070   0.298       -0.189      0.069       1629  
   1276.085  1105.183  -5.323   0.211       -0.405      -0.068      1630  
   1519.479  1106.081  -5.737   0.282       -0.346      -0.034      1631  
   946.747   1107.110  -4.806   0.594       0.118       0.115       1632  
   1021.222  1106.519  -4.893   0.436       -0.539      0.259       1633  
   1132.056  1108.816  -4.800   0.497       -0.590      0.260       1634  
   1177.626  1108.405  -5.471   0.316       -0.264      -0.216      1635  
   640.226   1111.478  -4.936   0.431       -0.563      0.199       1636  
   895.416   1111.300  -4.521   0.468       -0.128      0.028       1637  
   1226.670  1110.150  -4.409   0.540       -0.340      0.479       1638  
   974.600   1111.927  -5.641   0.336       -0.426      -0.151      1639  
   1013.072  1109.868  -5.062   0.575       -0.273      -0.612      1640  
   1441.833  1112.984  -5.627   0.360       -0.386      -0.281      1641  
   334.418   1113.841  -5.186   0.430       -0.249      0.716       1642  
   875.405   1115.058  -4.867   0.574       -0.355      0.032       1643  
   1090.326  1115.743  -5.053   0.286       -0.376      0.122       1644  
   1200.036  1112.401  -4.645   0.597       -0.431      -0.969      1645  
   1676.638  1115.068  -5.472   0.420       -0.071      0.899       1646  
   610.295   1116.215  -5.371   0.227       -0.336      -0.201      1647  
   723.244   1116.319  -5.547   0.218       -0.643      -0.136      1648  
   1294.302  1116.920  -4.581   0.622       0.788       0.651       1649  
   244.960   1112.628  -5.777   0.272       -0.133      0.227       1650  
   1505.906  1111.920  -5.108   0.332       -0.078      -0.037      1651  
   891.099   1118.900  -4.351   0.640       -0.762      0.413       1652  
   637.054   1117.083  -4.910   0.342       0.170       0.072       1653  
   1173.883  1120.147  -4.244   0.392       0.277       0.638       1654  
   832.971   1123.090  -5.244   0.573       -0.250      0.084       1655  
   993.195   1121.105  -5.032   0.581       -0.462      -0.549      1656  
   1072.430  1119.832  -5.064   0.504       0.111       0.396       1657  
   1059.057  1121.942  -4.226   0.600       -0.050      0.525       1658  
   1120.916  1122.525  -5.453   0.257       -0.747      0.037       1659  
   858.035   1123.043  -4.781   0.516       -0.221      -0.174      1660  
   664.231   1124.073  -5.452   0.238       -0.002      0.030       1661  
   1301.231  1124.426  -5.438   0.234       -0.140      0.008       1662  
   1345.806  1125.811  -5.204   0.277       -0.218      -0.005      1663  
   694.333   1126.631  -5.258   0.242       -0.363      0.057       1664  
   650.889   1123.213  -4.487   0.652       -0.713      -0.309      1665  
   1468.215  1126.982  -5.721   0.279       -0.544      -0.014      1666  
   1097.687  1128.854  -5.490   0.340       0.084       -0.230      1667  
   1150.305  1129.738  -5.350   0.372       -0.714      0.122       1668  
   1218.005  1130.353  -5.578   0.381       0.132       -0.147      1669  
   1033.407  1131.279  -5.610   0.267       -0.432      -0.083      1670  
   829.748   1134.328  -5.581   0.266       -0.452      -0.108      1671  
   1377.453  1135.830  -4.903   0.339       0.582       0.528       1672  
   1450.944  1136.130  -5.091   0.312       -0.127      0.135       1673  
   643.603   1135.799  -5.408   0.212       -0.628      -0.106      1674  
   571.834   1142.408  -5.648   0.401       -0.251      0.167       1675  
   839.808   1136.790  -5.454   0.270       0.203       -0.482      1676  
   898.021   1138.120  -4.180   0.446       0.327       -0.454      1677  
   966.467   1139.634  -5.073   0.265       -0.305      -0.242      1678  
   680.138   1139.294  -4.890   0.485       -0.602      0.686       1679  
   805.935   1139.102  -5.150   0.483       -0.446      -0.110      1680  
   955.997   1140.577  -5.163   0.306       -0.287      -0.562      1681  
   1424.415  1140.156  -5.738   0.291       -0.124      -0.033      1682  
   627.619   1135.472  -5.138   0.318       -0.150      0.096       1683  
   1130.844  1142.695  -5.146   0.271       -0.282      0.230       1684  
   1604.195  1141.159  -5.437   0.464       -0.046      -0.154      1685  
   1374.326  1139.102  -4.921   0.313       0.261       0.316       1686  
   1450.526  1137.517  -5.081   0.319       -0.059      0.077       1687  
   1176.519  1145.693  -5.393   0.501       -0.304      0.091       1688  
   722.396   1146.634  -5.002   0.308       -0.210      -0.336      1689  
   1655.900  1144.224  -5.812   0.296       -0.303      0.030       1690  
   2010.507  1147.582  -5.283   0.266       -0.349      -0.058      1691  
   584.538   1144.851  -5.604   0.415       -0.226      0.069       1692  
   874.088   1144.966  -4.750   0.510       -0.031      0.121       1693  
   1343.812  1144.742  -5.689   0.329       -0.385      -0.105      1694  
   929.298   1143.184  -5.341   0.556       -0.119      0.067       1695  
   1865.066  1148.167  -5.732   0.381       -0.117      0.637       1696  
   1299.984  1149.620  -5.627   0.262       -0.609      0.009       1697  
   267.287   1150.866  -5.691   0.355       -0.247      -0.409      1698  
   822.520   1150.467  -5.340   0.534       -0.014      0.021       1699  
   947.764   1147.523  -5.169   0.328       -0.193      0.255       1700  
   892.727   1153.222  -5.073   0.236       -0.542      -0.092      1701  
   1423.698  1153.122  -5.496   0.217       -0.273      0.007       1702  
   455.641   1157.054  -4.904   0.332       0.081       -0.448      1703  
   969.670   1153.244  -5.514   0.258       -0.578      -0.141      1704  
   1155.505  1154.077  -4.305   0.623       -0.182      -0.636      1705  
   160.041   1155.007  -5.684   0.361       -0.091      0.035       1706  
   721.302   1151.074  -4.960   0.350       -0.145      0.032       1707  
   1143.076  1160.929  -5.100   0.500       -0.348      0.493       1708  
   889.289   1157.043  -5.108   0.303       -0.971      -0.076      1709  
   1374.294  1156.324  -5.454   0.449       -0.171      0.046       1710  
   1196.372  1158.717  -5.518   0.361       -0.734      -0.193      1711  
   449.712   1158.712  -4.971   0.321       -0.103      -0.117      1712  
   460.352   1158.133  -4.917   0.294       0.183       -0.512      1713  
   1589.346  1160.547  -5.750   0.258       -0.316      0.138       1714  
   951.980   1161.091  -3.872   0.603       -0.034      -0.289      1715  
   1169.994  1161.044  -4.256   0.641       -0.125      0.141       1716  
   1183.901  1160.994  -5.405   0.221       0.133       -0.038      1717  
   1017.965  1162.064  -5.501   0.470       -0.332      0.037       1718  
   815.572   1164.229  -5.642   0.376       -0.399      0.010       1719  
   1153.878  1160.388  -5.395   0.513       -0.437      -0.071      1720  
   1287.951  1165.795  -5.575   0.269       -0.635      0.089       1721  
   425.304   1169.639  -5.351   0.230       -0.478      0.005       1722  
   960.924   1167.825  -3.750   0.558       0.400       -0.568      1723  
   1341.550  1168.606  -5.709   0.307       -0.434      -0.042      1724  
   756.586   1170.031  -4.182   0.618       0.169       0.132       1725  
   902.969   1169.739  -5.613   0.261       -0.255      -0.140      1726  
   1120.589  1172.229  -5.105   0.262       0.090       0.068       1727  
   1176.950  1170.818  -4.885   0.639       0.511       -0.376      1728  
   1312.435  1172.972  -5.233   0.532       -0.033      0.307       1729  
   1075.185  1176.176  -4.901   0.319       0.378       -0.039      1730  
   1217.033  1174.037  -4.987   0.578       -0.431      -0.100      1731  
   875.790   1171.685  -5.321   0.565       -0.012      -0.745      1732  
   1459.786  1175.454  -5.464   0.479       -0.175      -0.274      1733  
   7.848     1179.128  -5.101   0.259       -0.199      -0.165      1734  
   1121.143  1174.787  -5.080   0.268       0.234       0.132       1735  
   989.991   1181.630  -5.315   0.534       -0.297      -0.327      1736  
   1180.427  1178.292  -5.425   0.227       -0.316      0.068       1737  
   1252.955  1180.507  -5.622   0.390       -0.531      -0.200      1738  
   799.130   1178.946  -5.093   0.559       -0.068      0.325       1739  
   930.394   1182.081  -5.583   0.252       -0.694      -0.312      1740  
   1056.101  1182.598  -4.705   0.648       0.405       -0.338      1741  
   7.962     1177.814  -5.054   0.296       -0.160      -0.367      1742  
   689.029   1184.013  -4.360   0.435       0.291       0.287       1743  
   1073.542  1180.521  -4.740   0.373       -0.032      -0.010      1744  
   1364.837  1184.522  -5.126   0.591       -0.159      -0.882      1745  
   854.971   1185.164  -5.286   0.535       -0.116      -0.405      1746  
   1246.309  1184.954  -4.450   0.534       -0.838      0.048       1747  
   921.090   1188.811  -5.330   0.451       -0.762      0.062       1748  
   414.436   1189.876  -5.329   0.210       -0.461      0.015       1749  
   1181.546  1189.153  -5.179   0.591       0.275       0.314       1750  
   717.967   1190.029  -5.341   0.532       -0.028      -0.953      1751  
   751.864   1187.763  -5.133   0.239       -0.199      0.292       1752  
   892.931   1196.029  -5.559   0.433       0.105       -0.272      1753  
   356.294   1192.191  -5.681   0.369       -0.259      0.834       1754  
   588.220   1192.407  -4.840   0.497       -0.148      0.991       1755  
   816.581   1194.776  -5.377   0.343       -0.971      0.290       1756  
   1373.830  1192.307  -5.637   0.246       -0.419      -0.108      1757  
   1288.637  1193.707  -5.573   0.411       -0.297      -0.015      1758  
   608.288   1193.957  -5.616   0.392       -0.236      0.424       1759  
   1154.111  1191.497  -5.643   0.290       -0.139      0.055       1760  
   1302.045  1195.760  -5.546   0.314       -0.879      -0.348      1761  
   1479.622  1195.923  -5.104   0.264       -0.282      0.031       1762  
   1926.006  1194.256  -5.723   0.396       -0.224      0.283       1763  
   1435.350  1200.206  -5.529   0.301       -0.852      -0.162      1764  
   1751.824  1196.209  -5.650   0.411       -0.231      -0.116      1765  
   299.137   1192.132  -5.746   0.332       -0.168      0.250       1766  
   655.545   1200.227  -5.736   0.304       -0.225      -0.113      1767  
   1020.854  1204.479  -4.711   0.625       0.520       0.260       1768  
   1431.391  1199.980  -5.382   0.416       -0.936      -0.719      1769  
   1479.393  1197.482  -5.049   0.257       0.057       -0.063      1770  
   1358.171  1203.144  -5.258   0.559       -0.287      -0.276      1771  
   712.202   1200.202  -5.711   0.317       -0.223      0.078       1772  
   1060.716  1209.308  -5.510   0.369       0.208       -0.059      1773  
   1273.084  1211.051  -4.266   0.553       0.090       -0.350      1774  
   1441.225  1207.712  -5.252   0.274       -0.504      0.118       1775  
   1255.191  1213.795  -5.051   0.310       -0.240      0.100       1776  
   458.110   1213.659  -5.606   0.241       -0.521      -0.037      1777  
   1169.080  1214.186  -5.298   0.532       -0.352      0.144       1778  
   1241.170  1213.991  -5.252   0.532       -0.134      -0.763      1779  
   1749.043  1214.126  -5.731   0.273       -0.452      -0.306      1780  
   1078.111  1215.329  -5.640   0.373       -0.303      -0.042      1781  
   922.534   1216.379  -5.503   0.222       -0.478      -0.053      1782  
   1586.223  1217.294  -5.781   0.258       -0.320      -0.050      1783  
   1048.025  1218.927  -4.718   0.577       -0.302      0.017       1784  
   1254.765  1214.661  -5.062   0.283       0.028       0.067       1785  
   1366.213  1216.824  -5.146   0.303       -0.179      0.399       1786  
   1545.663  1219.830  -5.616   0.254       -0.008      -0.042      1787  
   449.123   1220.948  -5.605   0.311       -0.702      -0.387      1788  
   1560.195  1221.107  -5.345   0.527       -0.258      -0.324      1789  
   242.140   1222.968  -5.766   0.300       -0.254      -0.142      1790  
   834.454   1225.025  -4.395   0.324       -0.279      0.707       1791  
   848.505   1225.320  -5.515   0.413       -0.001      0.198       1792  
   820.093   1224.979  -4.848   0.556       -0.330      0.788       1793  
   738.736   1225.251  -5.725   0.253       -0.229      -0.005      1794  
   1118.047  1226.645  -5.569   0.308       -0.260      -0.048      1795  
   1187.547  1227.750  -5.479   0.223       -0.575      0.040       1796  
   1716.078  1231.320  -5.637   0.421       -0.242      0.265       1797  
   830.086   1233.138  -5.223   0.604       -0.689      0.475       1798  
   602.566   1234.535  -4.968   0.303       0.126       0.584       1799  
   609.567   1233.890  -5.021   0.296       0.234       0.487       1800  
   785.830   1236.393  -5.274   0.501       -0.287      -0.221      1801  
   1699.931  1237.501  -5.659   0.367       0.124       -0.274      1802  
   1445.139  1239.331  -5.725   0.299       -0.276      -0.014      1803  
   1751.224  1239.186  -5.665   0.403       -0.193      0.827       1804  
   621.251   1241.740  -4.829   0.537       -0.414      0.496       1805  
   853.806   1245.762  -5.703   0.315       -0.126      -0.085      1806  
   1261.807  1245.071  -4.963   0.355       0.212       -0.092      1807  
   358.342   1240.761  -5.206   0.290       -0.242      0.280       1808  
   695.385   1242.474  -5.667   0.305       -0.524      -0.128      1809  
   1028.240  1239.719  -5.291   0.294       -0.552      0.136       1810  
   1649.743  1242.833  -5.723   0.319       -0.421      -0.522      1811  
   647.008   1238.732  -5.694   0.342       -0.372      -0.007      1812  
   1040.838  1246.936  -5.640   0.361       -0.403      -0.086      1813  
   789.999   1247.434  -5.664   0.321       -0.452      -0.048      1814  
   1127.236  1248.990  -4.875   0.508       -0.171      0.877       1815  
   778.646   1252.289  -5.267   0.496       -0.448      0.264       1816  
   1167.134  1252.703  -5.714   0.340       -0.186      0.062       1817  
   1260.745  1249.071  -4.872   0.338       0.347       0.299       1818  
   344.343   1254.609  -5.267   0.290       -0.486      0.073       1819  
   1504.042  1253.022  -5.733   0.339       -0.254      0.100       1820  
   216.782   1254.173  -5.705   0.346       -0.149      0.813       1821  
   1321.007  1257.063  -5.007   0.380       -0.151      0.210       1822  
   408.501   1255.411  -5.666   0.356       0.095       -0.240      1823  
   973.956   1256.054  -4.733   0.420       -0.384      -0.000      1824  
   1010.977  1259.641  -5.703   0.332       -0.308      -0.086      1825  
   1302.788  1262.996  -5.679   0.369       -0.196      -0.166      1826  
   47.793    1260.388  -5.591   0.220       -0.350      -0.040      1827  
   809.448   1258.171  -5.386   0.449       -0.076      -0.764      1828  
   1141.162  1258.371  -5.733   0.267       -0.253      -0.071      1829  
   616.868   1258.647  -5.243   0.323       -0.440      0.119       1830  
   1545.949  1261.998  -5.635   0.408       -0.128      -0.028      1831  
   1040.233  1265.849  -5.111   0.288       -0.076      -0.165      1832  
   1318.820  1261.183  -5.045   0.296       0.124       0.047       1833  
   1214.950  1269.423  -5.429   0.500       -0.101      0.143       1834  
   1834.109  1265.344  -5.595   0.453       -0.208      0.183       1835  
   133.450   1266.388  -5.557   0.211       -0.394      -0.024      1836  
   985.054   1269.077  -5.573   0.413       -0.052      0.342       1837  
   1254.773  1270.214  -5.540   0.437       -0.387      -0.083      1838  
   504.306   1268.140  -5.720   0.269       -0.380      -0.007      1839  
   1440.921  1270.626  -5.141   0.306       -0.147      -0.047      1840  
   2030.010  1267.489  -5.807   0.292       -0.374      0.168       1841  
   473.725   1269.309  -5.750   0.312       -0.261      0.041       1842  
   679.443   1270.490  -5.572   0.287       -0.888      -0.390      1843  
   907.175   1271.752  -4.914   0.325       -0.650      -0.281      1844  
   883.632   1271.130  -5.704   0.284       -0.552      -0.121      1845  
   1425.897  1272.329  -5.570   0.257       0.001       0.002       1846  
   402.460   1273.115  -5.730   0.278       -0.233      -0.005      1847  
   1559.731  1278.857  -5.000   0.320       0.132       0.068       1848  
   1198.780  1277.324  -5.726   0.327       -0.418      -0.139      1849  
   1084.968  1279.067  -5.279   0.544       -0.258      -0.143      1850  
   904.706   1275.772  -5.072   0.358       -0.086      0.289       1851  
   1821.195  1280.031  -5.856   0.268       -0.355      0.211       1852  
   1255.227  1281.192  -4.223   0.665       -0.410      -0.409      1853  
   1865.163  1284.668  -5.819   0.248       -0.335      -0.131      1854  
   1279.819  1283.112  -5.414   0.500       -0.078      0.097       1855  
   1245.599  1287.025  -4.861   0.291       -0.013      -0.257      1856  
   1560.091  1280.852  -4.965   0.272       0.165       0.014       1857  
   1588.563  1288.220  -5.813   0.268       -0.381      -0.055      1858  
   893.732   1288.186  -4.878   0.583       0.058       -0.180      1859  
   711.135   1288.260  -5.251   0.260       -0.569      0.179       1860  
   1387.958  1291.616  -5.736   0.317       -0.287      -0.138      1861  
   1397.228  1291.880  -4.921   0.619       -0.114      -0.399      1862  
   757.193   1294.396  -5.732   0.300       -0.298      -0.102      1863  
   1185.236  1292.923  -5.216   0.552       -0.271      0.005       1864  
   1900.773  1299.475  -5.809   0.255       -0.333      0.074       1865  
   1229.226  1293.925  -4.753   0.462       0.111       -0.032      1866  
   1244.097  1291.155  -4.935   0.333       0.068       0.129       1867  
   908.362   1297.296  -5.619   0.322       -0.283      -0.176      1868  
   400.656   1296.977  -5.748   0.287       -0.306      0.193       1869  
   1317.976  1303.200  -5.620   0.393       -0.120      0.027       1870  
   61.239    1298.047  -5.676   0.373       -0.315      0.228       1871  
   1120.469  1298.031  -5.628   0.300       -0.214      0.062       1872  
   1797.473  1294.349  -5.787   0.306       -0.095      0.002       1873  
   650.998   1299.093  -5.150   0.435       -0.439      0.925       1874  
   1758.094  1301.114  -5.577   0.233       -0.427      0.045       1875  
   889.975   1295.650  -5.635   0.381       -0.427      0.056       1876  
   1056.718  1303.981  -5.678   0.246       -0.367      -0.026      1877  
   1162.830  1302.273  -5.145   0.274       -0.064      0.429       1878  
   1177.039  1304.189  -5.593   0.257       -0.379      -0.065      1879  
   1606.010  1305.243  -5.821   0.299       -0.219      -0.909      1880  
   1349.819  1307.229  -5.285   0.481       -0.234      -0.926      1881  
   1123.285  1308.448  -5.439   0.420       0.296       -0.216      1882  
   1539.742  1310.147  -5.423   0.260       -0.540      -0.237      1883  
   1450.037  1310.687  -5.372   0.228       -0.208      0.179       1884  
   915.039   1305.831  -5.631   0.389       -0.310      0.025       1885  
   1542.440  1310.970  -5.369   0.291       -0.601      -0.594      1886  
   800.837   1313.285  -5.480   0.436       -0.130      -0.210      1887  
   667.391   1319.665  -5.348   0.295       0.911       0.311       1888  
   647.242   1317.270  -5.274   0.273       -0.541      0.001       1889  
   1611.839  1316.797  -5.548   0.390       -0.851      0.181       1890  
   1871.350  1315.849  -5.852   0.261       -0.285      0.222       1891  
   1179.242  1316.950  -5.090   0.546       -0.571      0.376       1892  
   1835.826  1319.312  -5.007   0.328       0.195       0.303       1893  
   1447.702  1316.258  -5.161   0.313       0.145       0.032       1894  
   1457.438  1320.250  -5.665   0.395       -0.278      0.330       1895  
   982.331   1325.866  -5.756   0.304       -0.035      0.114       1896  
   1513.180  1323.239  -5.684   0.220       -0.355      0.014       1897  
   1373.894  1324.199  -5.321   0.571       -0.177      -0.303      1898  
   1384.983  1325.034  -5.222   0.444       -0.481      0.269       1899  
   1833.978  1322.856  -4.967   0.307       0.011       -0.327      1900  
   265.819   1328.213  -5.672   0.321       -0.433      -0.256      1901  
   814.348   1328.774  -5.603   0.237       -0.268      -0.015      1902  
   1260.307  1328.023  -5.484   0.487       -0.518      0.052       1903  
   1314.310  1327.796  -5.471   0.202       -0.455      0.052       1904  
   1515.154  1338.126  -5.540   0.463       -0.298      -0.071      1905  
   1319.234  1329.151  -5.438   0.493       -0.315      -0.142      1906  
   1433.005  1333.980  -5.502   0.486       -0.165      0.373       1907  
   1674.764  1332.391  -5.758   0.272       -0.388      0.038       1908  
   1088.812  1339.021  -5.695   0.280       -0.541      0.047       1909  
   1979.860  1338.097  -5.513   0.229       -0.509      0.066       1910  
   468.872   1338.317  -5.568   0.453       -0.106      0.005       1911  
   638.120   1334.441  -5.089   0.258       -0.136      -0.071      1912  
   1531.052  1338.974  -4.556   0.618       -0.978      0.186       1913  
   907.734   1342.635  -4.901   0.347       0.584       0.686       1914  
   1371.884  1340.691  -5.713   0.259       -0.564      -0.014      1915  
   262.794   1336.663  -5.744   0.271       -0.449      0.033       1916  
   1586.489  1343.207  -5.797   0.318       -0.186      -0.037      1917  
   1067.343  1346.344  -5.413   0.252       -0.561      -0.204      1918  
   1787.619  1349.839  -5.200   0.276       -0.304      0.014       1919  
   338.015   1352.377  -5.350   0.243       -0.332      0.050       1920  
   1864.890  1350.392  -5.510   0.406       -0.325      0.386       1921  
   903.229   1348.923  -5.103   0.275       -0.274      0.341       1922  
   494.852   1351.991  -5.579   0.222       -0.373      -0.020      1923  
   578.148   1354.676  -5.165   0.310       -0.246      -0.113      1924  
   1082.348  1352.743  -5.212   0.392       0.167       -0.264      1925  
   1354.349  1354.580  -5.517   0.213       -0.331      0.045       1926  
   1278.765  1354.454  -5.660   0.230       -0.462      -0.041      1927  
   1088.804  1357.213  -5.156   0.285       -0.241      0.128       1928  
   578.239   1353.151  -5.137   0.297       -0.090      0.176       1929  
   1218.625  1358.267  -5.739   0.267       -0.377      -0.194      1930  
   1106.535  1360.105  -5.377   0.480       -0.600      -0.236      1931  
   856.845   1361.995  -5.598   0.379       -0.218      0.254       1932  
   1204.209  1361.092  -5.737   0.279       -0.503      0.028       1933  
   1513.859  1362.948  -5.766   0.295       -0.412      -0.282      1934  
   1659.493  1365.404  -5.233   0.249       -0.349      0.308       1935  
   959.883   1364.021  -4.820   0.560       -0.587      -0.243      1936  
   410.355   1370.529  -5.123   0.301       -0.298      0.051       1937  
   1009.728  1368.577  -5.716   0.287       -0.366      -0.145      1938  
   1983.024  1370.488  -5.817   0.322       -0.218      -0.005      1939  
   904.057   1370.223  -5.547   0.381       -0.228      -0.301      1940  
   934.444   1370.298  -5.501   0.228       -0.218      0.000       1941  
   1154.024  1370.055  -5.682   0.358       -0.221      -0.097      1942  
   970.270   1373.927  -5.522   0.204       -0.405      0.092       1943  
   1088.148  1373.386  -5.737   0.275       -0.391      0.095       1944  
   1354.587  1372.876  -5.321   0.299       -0.592      0.200       1945  
   173.414   1381.224  -5.097   0.273       -0.107      0.025       1946  
   1513.481  1380.143  -5.401   0.219       -0.423      0.078       1947  
   1982.339  1384.770  -5.163   0.284       -0.310      0.067       1948  
   102.345   1383.651  -5.791   0.235       -0.363      -0.097      1949  
   871.941   1384.192  -5.583   0.432       -0.208      0.444       1950  
   176.221   1379.484  -5.009   0.310       -0.315      -0.217      1951  
   1544.747  1385.437  -5.376   0.476       -0.240      0.974       1952  
   1818.659  1385.185  -5.854   0.299       -0.149      -0.224      1953  
   934.105   1389.002  -4.916   0.318       0.413       0.513       1954  
   1694.914  1387.218  -5.793   0.276       -0.356      0.098       1955  
   610.995   1389.285  -5.563   0.424       -0.174      0.921       1956  
   930.686   1390.186  -4.902   0.397       -0.043      -0.226      1957  
   1723.951  1390.254  -5.642   0.404       -0.236      -0.424      1958  
   78.479    1392.698  -5.654   0.211       -0.251      -0.000      1959  
   1143.019  1393.164  -5.443   0.458       -0.196      0.588       1960  
   1440.555  1392.769  -5.766   0.281       -0.523      -0.079      1961  
   1613.252  1399.108  -5.682   0.397       -0.315      0.575       1962  
   1774.090  1396.736  -5.801   0.291       -0.317      0.111       1963  
   1257.801  1403.321  -5.780   0.270       -0.275      0.044       1964  
   462.331   1401.552  -5.762   0.249       -0.371      0.042       1965  
   1041.109  1404.977  -5.507   0.226       -0.696      0.202       1966  
   966.948   1407.196  -5.692   0.382       -0.184      -0.118      1967  
   118.862   1410.297  -5.448   0.351       -0.107      0.556       1968  
   1524.887  1409.754  -5.793   0.258       -0.353      0.025       1969  
   898.075   1411.310  -5.722   0.264       -0.468      -0.019      1970  
   1074.140  1414.658  -5.138   0.296       -0.284      -0.081      1971  
   1021.914  1416.208  -5.080   0.313       -0.183      0.035       1972  
   1052.395  1413.315  -5.758   0.294       -0.253      0.079       1973  
   1074.266  1415.751  -5.103   0.280       0.112       0.265       1974  
   329.030   1421.014  -5.782   0.267       -0.273      0.049       1975  
   1020.909  1418.041  -5.123   0.333       -0.177      0.201       1976  
   914.870   1428.572  -5.686   0.276       -0.204      -0.011      1977  
   303.659   1426.284  -5.747   0.250       -0.237      0.114       1978  
   731.097   1428.734  -5.556   0.380       -0.374      -0.374      1979  
   926.207   1429.538  -5.655   0.241       -0.490      -0.172      1980  
   1009.328  1431.346  -5.512   0.223       -0.457      -0.048      1981  
   1472.118  1431.359  -5.799   0.288       -0.168      0.272       1982  
   1702.708  1433.001  -5.849   0.266       -0.325      -0.107      1983  
   872.835   1442.545  -5.740   0.263       -0.340      -0.067      1984  
   1671.721  1444.023  -5.176   0.258       -0.278      -0.003      1985  
   1526.061  1443.388  -5.328   0.517       -0.165      -0.004      1986  
   1626.269  1442.964  -5.738   0.246       -0.367      0.006       1987  
   927.605   1451.012  -5.647   0.337       -0.322      0.109       1988  
   658.870   1449.492  -5.717   0.244       -0.372      -0.037      1989  
   1672.345  1443.274  -5.075   0.261       -0.197      -0.030      1990  
   1799.453  1448.235  -5.300   0.261       -0.418      0.286       1991  
   673.750   1450.979  -5.690   0.233       -0.386      -0.060      1992  
   753.419   1455.061  -4.986   0.337       0.114       -0.248      1993  
   1099.034  1459.113  -5.733   0.330       -0.209      -0.069      1994  
   921.090   1458.177  -5.341   0.488       -0.534      0.736       1995  
   814.742   1462.145  -5.588   0.265       -0.965      -0.137      1996  
   754.352   1457.367  -4.908   0.326       0.169       -0.075      1997  
   770.589   1464.148  -5.618   0.217       -0.423      -0.048      1998  
   1001.013  1462.676  -5.187   0.285       -0.202      0.318       1999  
   1829.790  1469.252  -5.205   0.288       -0.236      -0.065      2000  
   362.758   1471.491  -5.713   0.259       -0.244      -0.156      2001  
   1017.468  1470.700  -4.772   0.307       -0.623      0.559       2002  
   1917.068  1473.633  -5.616   0.341       -0.013      -0.170      2003  
   1024.075  1469.583  -4.990   0.301       0.329       0.533       2004  
   705.361   1474.586  -5.776   0.262       -0.289      -0.031      2005  
   801.887   1473.149  -5.638   0.342       -0.538      -0.064      2006  
   1349.348  1472.122  -5.636   0.247       -0.394      -0.193      2007  
   1055.550  1475.085  -5.415   0.264       -0.072      -0.096      2008  
   1829.274  1468.056  -5.148   0.237       -0.209      0.002       2009  
   1619.002  1477.068  -5.829   0.262       -0.284      -0.053      2010  
   367.890   1478.051  -5.639   0.338       -0.102      -0.457      2011  
   1059.426  1475.967  -5.435   0.306       0.254       -0.279      2012  
   825.281   1481.923  -5.405   0.500       0.039       0.650       2013  
   983.088   1484.140  -5.047   0.339       0.103       0.098       2014  
   1559.870  1484.296  -5.505   0.208       -0.426      0.070       2015  
   1009.576  1484.534  -5.019   0.287       0.334       0.400       2016  
   1340.200  1486.011  -4.947   0.306       -0.025      0.476       2017  
   1021.744  1486.917  -5.096   0.337       -0.081      -0.769      2018  
   982.668   1485.497  -4.959   0.366       0.218       0.509       2019  
   1337.472  1489.474  -4.972   0.312       0.192       0.280       2020  
   6.097     1502.978  -5.804   0.256       -0.344      -0.220      2021  
   801.258   1506.711  -5.491   0.221       -0.438      -0.062      2022  
   861.505   1505.290  -5.698   0.249       -0.346      -0.045      2023  
   985.205   1506.558  -5.279   0.278       -0.597      0.074       2024  
   1344.093  1509.099  -4.432   0.646       0.283       -0.396      2025  
   1330.330  1509.972  -5.645   0.244       -0.665      -0.214      2026  
   1384.974  1510.762  -5.794   0.274       -0.295      0.159       2027  
   1719.986  1513.568  -5.807   0.256       -0.258      0.021       2028  
   613.299   1515.591  -5.138   0.217       -0.335      -0.170      2029  
   1609.988  1518.264  -5.844   0.296       -0.069      0.443       2030  
   1090.136  1517.002  -4.972   0.542       0.212       -0.480      2031  
   1268.014  1517.383  -5.406   0.517       -0.079      -0.295      2032  
   1442.441  1517.195  -5.810   0.329       -0.318      0.163       2033  
   1144.909  1521.191  -5.793   0.280       -0.310      -0.102      2034  
   1554.999  1522.953  -5.625   0.434       -0.179      0.768       2035  
   1671.750  1530.071  -5.810   0.302       -0.293      0.007       2036  
   868.121   1527.018  -5.667   0.396       -0.176      0.184       2037  
   1001.901  1527.231  -5.482   0.430       -0.470      -0.036      2038  
   831.546   1531.993  -5.226   0.292       -0.352      0.002       2039  
   1103.641  1532.836  -5.086   0.607       -0.217      -0.903      2040  
   1013.835  1530.331  -5.260   0.276       -0.507      0.063       2041  
   412.154   1543.996  -5.755   0.267       -0.384      -0.032      2042  
   1184.004  1544.305  -5.774   0.314       -0.173      -0.018      2043  
   449.127   1547.037  -5.552   0.204       -0.559      0.042       2044  
   902.688   1551.584  -5.690   0.345       -0.321      0.061       2045  
   1375.947  1549.075  -5.675   0.374       -0.284      0.864       2046  
   839.556   1556.455  -5.313   0.244       -0.166      0.124       2047  
   1803.896  1564.041  -5.820   0.311       -0.126      0.060       2048  
   993.150   1564.540  -5.728   0.264       -0.428      0.117       2049  
   1082.598  1580.934  -5.225   0.255       -0.303      0.011       2050  
   914.091   1577.853  -5.524   0.457       -0.244      -0.613      2051  
   1513.441  1581.190  -5.789   0.343       -0.182      0.125       2052  
   787.066   1581.580  -5.422   0.255       -0.877      -0.293      2053  
   639.794   1590.118  -5.344   0.230       -0.521      0.062       2054  
   1495.835  1589.321  -5.696   0.242       -0.376      0.011       2055  
   1474.879  1590.215  -5.763   0.347       -0.175      0.011       2056  
   916.807   1594.001  -5.139   0.494       -0.498      -0.345      2057  
   734.174   1592.822  -5.195   0.248       -0.462      0.357       2058  
   1093.216  1597.432  -5.704   0.239       -0.378      -0.047      2059  
   1994.095  1596.326  -5.775   0.360       -0.218      0.134       2060  
   1625.027  1600.081  -5.357   0.477       -0.951      -0.439      2061  
   516.857   1602.124  -5.590   0.223       -0.394      -0.013      2062  
   1045.015  1603.347  -5.631   0.397       -0.183      -0.314      2063  
   1952.737  1602.709  -5.850   0.251       -0.304      0.043       2064  
   1326.243  1608.710  -5.293   0.243       -0.418      0.126       2065  
   1032.232  1605.602  -5.715   0.270       -0.414      0.045       2066  
   1191.603  1610.342  -5.670   0.396       -0.266      0.671       2067  
   1079.796  1616.040  -5.728   0.237       -0.485      -0.018      2068  
   1614.174  1624.060  -5.781   0.266       -0.421      0.161       2069  
   988.191   1629.801  -5.712   0.370       -0.222      0.472       2070  
   1546.848  1633.290  -5.735   0.370       -0.172      0.257       2071  
   956.849   1625.908  -5.681   0.356       -0.117      0.180       2072  
   1270.076  1631.059  -5.612   0.392       -0.089      0.962       2073  
   1054.710  1635.727  -5.786   0.283       -0.386      0.014       2074  
   677.660   1639.390  -5.575   0.227       -0.317      0.166       2075  
   884.322   1638.303  -5.252   0.496       -0.202      0.105       2076  
   2025.673  1644.441  -5.842   0.271       -0.237      0.087       2077  
   1841.069  1642.122  -5.882   0.284       -0.222      0.147       2078  
   678.701   1641.756  -5.566   0.322       0.090       0.236       2079  
   132.754   1652.577  -5.644   0.222       -0.424      -0.100      2080  
   1424.892  1655.362  -5.829   0.254       -0.352      -0.336      2081  
   1370.191  1660.953  -5.223   0.262       -0.332      0.109       2082  
   724.933   1658.811  -5.795   0.308       -0.284      0.505       2083  
   752.015   1668.232  -5.759   0.304       -0.300      0.168       2084  
   2000.940  1662.273  -5.680   0.406       -0.282      0.553       2085  
   1240.828  1671.698  -5.809   0.323       -0.168      -0.034      2086  
   794.896   1671.225  -5.789   0.279       -0.320      -0.102      2087  
   1548.511  1670.977  -5.823   0.269       -0.286      -0.057      2088  
   1493.077  1674.927  -5.752   0.226       -0.423      -0.033      2089  
   1412.755  1680.253  -5.154   0.271       -0.140      -0.326      2090  
   557.739   1679.238  -5.768   0.332       -0.173      0.168       2091  
   585.051   1684.072  -5.636   0.219       -0.428      -0.052      2092  
   1255.789  1686.102  -5.661   0.388       -0.063      0.426       2093  
   1413.675  1681.064  -5.073   0.345       0.257       0.662       2094  
   1727.176  1688.044  -5.778   0.366       -0.201      0.377       2095  
   696.885   1692.066  -5.599   0.372       -0.164      0.530       2096  
   1610.240  1697.138  -5.805   0.330       -0.192      0.722       2097  
   1400.472  1699.151  -5.679   0.240       -0.509      0.010       2098  
   1466.149  1697.779  -5.739   0.261       -0.333      -0.087      2099  
   926.112   1704.998  -5.808   0.276       -0.326      -0.128      2100  
   779.913   1710.005  -4.946   0.233       0.197       0.526       2101  
   786.807   1709.348  -4.944   0.353       -0.273      0.235       2102  
   957.059   1710.261  -5.713   0.377       -0.188      0.550       2103  
   1748.959  1714.937  -5.777   0.242       -0.394      -0.076      2104  
   1354.375  1717.269  -5.302   0.474       -0.313      -0.493      2105  
   187.056   1718.984  -5.720   0.207       -0.411      -0.028      2106  
   603.038   1719.115  -5.738   0.368       -0.290      0.961       2107  
   758.233   1723.039  -5.488   0.420       0.312       -0.084      2108  
   1451.600  1726.244  -5.042   0.302       0.001       -0.128      2109  
   916.902   1724.533  -5.779   0.277       -0.271      -0.557      2110  
   818.025   1731.085  -5.800   0.294       -0.285      0.344       2111  
   860.936   1726.072  -5.807   0.260       -0.281      -0.002      2112  
   104.937   1740.023  -5.831   0.260       -0.288      0.426       2113  
   1290.131  1742.268  -5.749   0.336       -0.330      0.029       2114  
   1525.499  1744.850  -5.817   0.247       -0.267      -0.091      2115  
   1455.275  1746.686  -4.874   0.326       0.074       0.427       2116  
   1035.145  1747.972  -5.465   0.207       -0.659      -0.027      2117  
   1070.628  1750.309  -5.124   0.552       -0.104      -0.510      2118  
   1470.887  1751.228  -5.476   0.213       0.053       0.289       2119  
   1436.961  1753.145  -5.344   0.531       -0.133      0.908       2120  
   1452.001  1750.695  -4.948   0.313       0.088       0.105       2121  
   300.104   1754.897  -5.831   0.274       -0.230      0.492       2122  
   1076.478  1758.715  -5.272   0.504       -0.247      -0.203      2123  
   621.323   1767.282  -4.936   0.336       0.243       -0.524      2124  
   619.201   1770.219  -4.862   0.215       0.039       0.218       2125  
   1955.034  1771.984  -5.713   0.370       -0.196      0.751       2126  
   1420.565  1773.066  -5.755   0.361       -0.288      0.356       2127  
   1446.014  1775.910  -5.208   0.587       -0.378      0.658       2128  
   590.864   1778.150  -5.806   0.289       -0.254      -0.133      2129  
   1688.493  1778.719  -5.378   0.253       -0.465      0.126       2130  
   409.904   1791.103  -5.842   0.290       -0.431      -0.336      2131  
   1693.189  1793.075  -5.715   0.413       -0.254      0.437       2132  
   719.256   1798.364  -5.347   0.208       -0.307      0.107       2133  
   949.203   1806.850  -5.801   0.274       -0.302      0.202       2134  
   561.711   1807.505  -5.832   0.261       -0.303      0.299       2135  
   1649.072  1815.582  -5.888   0.285       -0.279      -0.304      2136  
   1663.911  1812.189  -5.885   0.273       -0.276      -0.045      2137  
   1763.480  1811.330  -5.882   0.268       -0.339      -0.112      2138  
   1154.718  1823.425  -5.685   0.233       -0.359      0.003       2139  
   609.705   1824.382  -5.365   0.492       -0.033      -0.842      2140  
   104.963   1827.250  -5.788   0.326       -0.104      0.512       2141  
   1437.465  1831.973  -5.836   0.282       -0.329      -0.425      2142  
   882.917   1835.491  -5.407   0.228       -0.548      0.130       2143  
   1331.712  1848.938  -5.198   0.271       0.012       -0.059      2144  
   1250.983  1850.075  -5.690   0.383       -0.235      0.195       2145  
   332.257   1860.924  -5.867   0.264       -0.262      0.573       2146  
   1332.106  1852.188  -5.035   0.286       -0.131      -0.221      2147  
   2020.182  1860.094  -5.728   0.232       -0.322      0.021       2148  
   15.120    1866.043  -5.732   0.390       -0.128      0.829       2149  
   266.023   1867.134  -5.785   0.317       -0.269      0.853       2150  
   1050.768  1866.524  -5.854   0.270       -0.236      -0.077      2151  
   1823.339  1870.025  -5.711   0.382       -0.166      0.700       2152  
   1792.440  1873.719  -4.758   0.375       0.379       -0.664      2153  
   952.259   1874.318  -5.383   0.226       -0.341      0.025       2154  
   1766.822  1881.178  -5.113   0.263       0.623       -0.926      2155  
   1810.456  1880.244  -5.295   0.264       -0.602      -0.360      2156  
   1004.514  1885.600  -5.140   0.267       -0.229      0.149       2157  
   1640.342  1892.512  -4.995   0.367       -0.002      -0.592      2158  
   1788.638  1886.485  -4.535   0.320       0.088       -0.717      2159  
   1004.159  1885.794  -5.121   0.246       -0.105      0.001       2160  
   529.525   1894.742  -5.162   0.263       -0.254      0.094       2161  
   1065.310  1895.070  -5.821   0.248       -0.330      -0.057      2162  
   1366.555  1893.909  -5.789   0.237       -0.380      -0.012      2163  
   1637.530  1893.990  -4.994   0.216       0.162       0.927       2164  
   866.565   1897.084  -5.847   0.282       -0.226      -0.245      2165  
   920.440   1898.071  -5.798   0.348       -0.205      0.799       2166  
   530.894   1892.820  -5.070   0.265       -0.227      -0.109      2167  
   686.851   1905.278  -5.805   0.244       -0.321      -0.188      2168  
   1728.524  1903.875  -5.667   0.220       -0.360      0.074       2169  
   556.058   1908.082  -5.739   0.367       -0.230      0.250       2170  
   1084.058  1909.435  -5.019   0.284       0.457       0.752       2171  
   35.848    1921.640  -5.785   0.253       -0.333      0.167       2172  
   1082.415  1912.028  -5.037   0.313       0.203       0.193       2173  
   896.220   1920.019  -5.860   0.296       -0.202      -0.247      2174  
   826.846   1922.392  -5.748   0.308       0.009       0.359       2175  
   1035.582  1924.621  -5.284   0.272       -0.545      0.086       2176  
   1595.982  1930.987  -5.005   0.310       0.222       -0.501      2177  
   1594.264  1933.448  -5.066   0.328       -0.143      0.418       2178  
   1192.723  1934.249  -5.569   0.221       -0.387      0.105       2179  
   272.307   1935.037  -5.840   0.243       -0.359      0.240       2180  
   543.444   1942.799  -4.982   0.298       -0.345      0.448       2181  
   1008.176  1940.293  -5.820   0.243       -0.385      0.011       2182  
   403.043   1948.499  -5.852   0.260       -0.317      0.370       2183  
   575.055   1950.109  -5.751   0.348       -0.168      0.292       2184  
   1638.925  1959.375  -5.215   0.252       -0.239      0.087       2185  
   327.330   1963.064  -5.703   0.380       -0.108      0.825       2186  
   1490.706  1966.250  -5.886   0.278       -0.382      0.090       2187  
   229.996   1968.131  -5.837   0.252       -0.344      -0.038      2188  
   1957.594  1976.669  -5.883   0.254       -0.278      0.022       2189  
   1199.562  1982.557  -5.292   0.287       -0.358      0.072       2190  
   1304.258  1986.097  -5.635   0.255       -0.703      0.015       2191  
   1297.719  1992.172  -5.161   0.265       -0.207      0.017       2192  
   150.922   2002.151  -5.836   0.279       -0.286      -0.157      2193  
   687.884   2001.988  -5.695   0.405       -0.252      -0.386      2194  
   1111.021  2003.152  -5.750   0.221       -0.354      0.003       2195  
   926.725   2031.937  -5.748   0.251       -0.333      0.049       2196  
   1649.245  2032.430  -5.544   0.410       -0.316      0.017       2197  
   251.086   2038.985  -5.065   0.333       -0.284      -0.126      2198  
