#K IRAF       = NOAO/IRAFV2.16.1        version    %-23s     
#K USER       = juan                    name       %-23s     
#K HOST       = juan-UX303LA            computer   %-23s     
#K DATE       = 2016-03-27              yyyy-mm-dd %-23s     
#K TIME       = 22:44:09                hh:mm:ss   %-23s     
#K PACKAGE    = apphot                  name       %-23s     
#K TASK       = phot                    name       %-23s     
#
#K SCALE      = 1.                      units      %-23.7g   
#K FWHMPSF    = 10.56                   scaleunit  %-23.7g   
#K EMISSION   = yes                     switch     %-23b     
#K DATAMIN    = INDEF                   counts     %-23.7g   
#K DATAMAX    = INDEF                   counts     %-23.7g   
#K EXPOSURE   = EXPTIME                 keyword    %-23s     
#K AIRMASS    = ""                      keyword    %-23s     
#K FILTER     = ""                      keyword    %-23s     
#K OBSTIME    = ""                      keyword    %-23s     
#
#K NOISE      = poisson                 model      %-23s     
#K SIGMA      = 226.                    counts     %-23.7g   
#K GAIN       = GAIN                    keyword    %-23s     
#K EPADU      = 1.                      e-/adu     %-23.7g   
#K CCDREAD    = RDNOISE                 keyword    %-23s     
#K READNOISE  = 5.9                     e-         %-23.7g   
#
#K CALGORITHM = centroid                algorithm  %-23s     
#K CBOXWIDTH  = 5.                      scaleunit  %-23.7g   
#K CTHRESHOLD = 0.                      sigma      %-23.7g   
#K MINSNRATIO = 1.                      number     %-23.7g   
#K CMAXITER   = 10                      number     %-23d     
#K MAXSHIFT   = 1.                      scaleunit  %-23.7g   
#K CLEAN      = no                      switch     %-23b     
#K RCLEAN     = 1.                      scaleunit  %-23.7g   
#K RCLIP      = 2.                      scaleunit  %-23.7g   
#K KCLEAN     = 3.                      sigma      %-23.7g   
#
#K SALGORITHM = mode                    algorithm  %-23s     
#K ANNULUS    = 53.25                   scaleunit  %-23.7g   
#K DANNULUS   = 31.95                   scaleunit  %-23.7g   
#K SKYVALUE   = 226.                    counts     %-23.7g   
#K KHIST      = 3.                      sigma      %-23.7g   
#K BINSIZE    = 0.1                     sigma      %-23.7g   
#K SMOOTH     = no                      switch     %-23b     
#K SMAXITER   = 10                      number     %-23d     
#K SLOCLIP    = 0.                      percent    %-23.7g   
#K SHICLIP    = 0.                      percent    %-23.7g   
#K SNREJECT   = 50                      number     %-23d     
#K SLOREJECT  = 3.                      sigma      %-23.7g   
#K SHIREJECT  = 3.                      sigma      %-23.7g   
#K RGROW      = 0.                      scaleunit  %-23.7g   
#
#K WEIGHTING  = constant                model      %-23s     
#K APERTURES  = 12                      scaleunit  %-23s     
#K ZMAG       = 25.                     zeropoint  %-23.7g   
#
#K IMAGE      = I                       imagename  %-23s     
#K MAXNPSF    = 50                      number     %-23d     
#K NEWSCALE   = 1.                      units      %-23.7g   
#K PSFRAD     = 13.                     scaleunit  %-23.7g   
#K FITRAD     = 4.                      scaleunit  %-23.7g   
#
#N ID    XCENTER   YCENTER   MAG         MSKY                                  \
#U ##    pixels    pixels    magnitudes  counts                                \
#F %-9d  %-10.3f   %-10.3f   %-12.3f     %-15.7g                                
#
12332    1790.513  1883.389  13.165      3348.043                               
9615     1018.582  1473.042  13.390      6778.534                               
5493     1291.894  841.492   13.511      12106.94                               
552      1985.524  84.118    13.518      3314.494                               
11391    1455.835  1746.349  13.536      4178.234                               
5324     882.981   815.804   13.553      14477.77                               
11164    779.535   1708.828  13.578      4551.547                               
7615     458.774   1160.341  13.606      5439.438                               
11552    616.070   1770.028  13.614      3847.006                               
5251     680.326   813.561   13.614      10322.88                               
12629    544.898   1944.013  13.615      3412.538                               
1335     956.960   210.553   13.626      7842.713                               
12359    1636.146  1893.943  13.627      3549.238                               
12578    1591.119  1934.989  13.639      3536.736                               
8110     605.179   1234.970  13.640      6633.513                               
2533     1482.429  393.439   13.646      6848.068                               
5823     859.230   895.788   13.648      13270.46                               
4981     884.628   766.434   13.657      14454.28                               
6698     588.430   1021.055  13.669      8008.773                               
1093     1653.364  171.470   13.679      4428.067                               
12475    1080.291  1913.940  13.692      3924.031                               
3750     825.571   583.489   13.702      12323.81                               
4743     1781.093  731.728   13.708      4685.361                               
3084     667.122   483.705   13.717      8430.547                               
5772     1445.917  882.705   13.722      9301.316                               
8652     1835.487  1319.632  13.724      4381.75                                
1394     1148.854  223.221   13.734      7505.588                               
12124    1330.948  1853.683  13.737      3947.751                               
6391     1357.944  972.691   13.738      10643.29                               
3456     1847.083  536.247   13.739      4328.646                               
3489     1452.221  544.712   13.742      7890.289                               
720      446.526   112.371   13.744      4775.831                               
4882     758.323   751.535   13.758      12433.18                               
8807     908.332   1341.699  13.762      7763.873                               
2524     1141.932  390.733   13.762      10183.66                               
6426     419.954   976.551   13.762      5658.364                               
5030     1066.948  773.354   13.763      14850.87                               
11257    1450.688  1726.385  13.765      4364.685                               
2924     789.525   459.905   13.766      10095.27                               
2094     1526.969  327.000   13.768      5632.916                               
3694     949.137   579.151   13.769      13676.51                               
9113     929.304   1390.432  13.771      7276.371                               
4510     1071.857  701.835   13.774      14396.8                                
6060     1258.709  932.952   13.776      12392.27                               
5359     987.625   820.505   13.776      14611.69                               
9786     1336.000  1488.479  13.778      5470.887                               
5720     963.188   877.000   13.783      15037.61                               
6097     665.384   931.671   13.787      9985.271                               
7779     1073.392  1179.830  13.792      9772.568                               
2555     1160.422  399.516   13.792      9996.619                               
