#K IRAF       = NOAO/IRAFV2.16.1        version    %-23s     
#K USER       = juan                    name       %-23s     
#K HOST       = juan-UX303LA            computer   %-23s     
#K DATE       = 2016-03-27              yyyy-mm-dd %-23s     
#K TIME       = 20:51:20                hh:mm:ss   %-23s     
#K PACKAGE    = apphot                  name       %-23s     
#K TASK       = daofind                 name       %-23s     
#
#K SCALE      = 1.                      units      %-23.7g   
#K FWHMPSF    = 10.65                   scaleunit  %-23.7g   
#K EMISSION   = yes                     switch     %-23b     
#K DATAMIN    = 19000.                  counts     %-23.7g   
#K DATAMAX    = INDEF                   counts     %-23.7g   
#K EXPOSURE   = EXPTIME                 keyword    %-23s     
#K AIRMASS    = ""                      keyword    %-23s     
#K FILTER     = ""                      keyword    %-23s     
#K OBSTIME    = ""                      keyword    %-23s     
#
#K NOISE      = poisson                 model      %-23s     
#K SIGMA      = 226.                    counts     %-23.7g   
#K GAIN       = GAIN                    keyword    %-23s     
#K EPADU      = 1.                      e-/adu     %-23.7g   
#K CCDREAD    = RDNOISE                 keyword    %-23s     
#K READNOISE  = 5.9                     e-         %-23.7g   
#
#K IMAGE      = I                       imagename  %-23s     
#K FWHMPSF    = 10.65                   scaleunit  %-23.7g   
#K THRESHOLD  = 4.                      sigma      %-23.7g   
#K NSIGMA     = 1.5                     sigma      %-23.7g   
#K RATIO      = 1.                      number     %-23.7g   
#K THETA      = 0.                      degrees    %-23.7g   
#
#K SHARPLO    = 0.2                     number     %-23.7g   
#K SHARPHI    = 1.                      number     %-23.7g   
#K ROUNDLO    = -1.                     number     %-23.7g   
#K ROUNDHI    = 1.                      number     %-23.7g   
#
#N XCENTER   YCENTER   MAG      SHARPNESS   SROUND      GROUND      ID         \
#U pixels    pixels    #        #           #           #           #          \
#F %-13.3f   %-10.3f   %-9.3f   %-12.3f     %-12.3f     %-12.3f     %-6d       \
#
   818.651   6.429     -4.959   0.365       -0.328      0.041       1     
   834.218   1.889     -4.777   0.574       -0.010      0.529       2     
   918.959   3.387     -5.152   0.231       -0.306      -0.208      3     
   1288.887  3.288     -5.621   0.459       -0.231      -0.039      4     
   1906.806  11.216    -6.052   0.217       -0.218      0.035       5     
   469.857   16.228    -5.942   0.239       -0.314      0.255       6     
   1361.494  16.833    -5.481   0.261       -0.008      0.549       7     
   918.868   17.988    -5.938   0.247       -0.427      0.097       8     
   1494.502  23.292    -5.436   0.232       -0.614      -0.554      9     
   899.538   26.267    -5.654   0.237       -0.610      0.360       10    
   1471.470  26.398    -5.777   0.233       -0.411      0.005       11    
   52.140    26.995    -6.062   0.235       -0.188      0.261       12    
   1157.555  27.805    -5.919   0.307       -0.220      0.083       13    
   1351.058  31.458    -5.741   0.315       -0.065      -0.215      14    
   1421.973  42.227    -5.537   0.202       -0.365      0.046       15    
   599.486   49.294    -5.557   0.309       -0.032      0.994       16    
   871.853   51.995    -5.666   0.318       -0.116      -0.551      17    
   1275.870  52.013    -5.766   0.253       -0.038      -0.318      18    
   1608.516  55.886    -5.950   0.265       -0.005      0.308       19    
   732.154   55.712    -5.795   0.209       -0.478      0.144       20    
   1227.877  57.096    -5.586   0.271       -0.306      0.908       21    
   873.665   57.494    -5.696   0.339       0.016       0.195       22    
   223.768   60.823    -6.004   0.213       -0.250      0.488       23    
   1282.875  59.544    -5.646   0.321       -0.063      0.168       24    
   1036.875  63.495    -5.693   0.205       -0.348      0.072       25    
   1208.610  66.570    -6.014   0.242       -0.195      0.627       26    
   1074.718  70.975    -5.747   0.215       -0.507      0.019       27    
   291.073   71.212    -5.921   0.231       -0.229      -0.046      28    
   1941.815  76.338    -5.729   0.204       -0.429      -0.014      29    
   1131.546  77.428    -5.261   0.226       -0.732      0.221       30    
   1120.411  76.871    -5.921   0.308       -0.105      0.588       31    
   52.572    79.808    -5.855   0.204       -0.371      -0.095      32    
   1851.651  78.036    -5.862   0.214       -0.399      0.153       33    
   1525.268  82.480    -5.260   0.226       -0.615      -0.146      34    
   251.144   83.121    -5.678   0.207       -0.317      0.089       35    
   1987.345  83.789    -5.231   0.249       0.181       0.804       36    
   2001.059  83.334    -6.100   0.308       -0.189      0.306       37    
   1159.364  89.411    -5.909   0.269       -0.225      -0.544      38    
   480.930   92.050    -5.279   0.263       -0.352      0.029       39    
   1343.530  99.700    -5.977   0.256       -0.243      0.275       40    
   721.982   100.085   -5.812   0.220       -0.247      0.257       41    
   1251.779  99.316    -5.507   0.261       -0.193      0.182       42    
   1040.373  99.258    -5.774   0.216       -0.354      -0.016      43    
   1820.599  104.327   -5.744   0.409       -0.233      -0.343      44    
   823.821   107.374   -5.404   0.249       0.011       0.351       45    
   675.797   108.818   -5.932   0.215       -0.226      0.141       46    
   1052.964  108.835   -5.545   0.432       -0.171      -0.052      47    
   1974.841  112.322   -5.484   0.253       -0.001      0.581       48    
   444.335   116.303   -5.000   0.220       -0.274      -0.404      49    
   1376.194  124.378   -5.958   0.285       -0.251      -0.196      50    
   1441.389  121.537   -5.883   0.220       -0.254      0.120       51    
   1202.184  123.152   -5.605   0.287       -0.240      -0.414      52    
   48.105    118.626   -5.983   0.254       -0.216      0.483       53    
   1075.581  125.291   -5.897   0.226       -0.436      0.062       54    
   885.295   127.164   -5.686   0.210       -0.250      0.120       55    
   1515.870  132.796   -5.913   0.281       -0.129      0.015       56    
   204.961   130.798   -5.947   0.215       -0.273      0.369       57    
   589.997   129.725   -5.709   0.258       -0.595      -0.082      58    
   406.256   131.460   -5.865   0.240       -0.378      -0.087      59    
   1090.075  132.524   -5.841   0.335       -0.091      0.156       60    
   733.998   132.643   -5.444   0.208       -0.288      0.069       61    
   1976.633  136.430   -6.102   0.247       -0.228      0.555       62    
   1060.566  136.234   -5.758   0.251       -0.517      -0.323      63    
   1727.994  136.906   -5.784   0.202       -0.343      -0.010      64    
   1034.348  135.906   -5.884   0.273       -0.406      0.375       65    
   1308.837  140.076   -5.886   0.282       -0.388      0.190       66    
   1494.596  143.335   -5.841   0.325       -0.260      -0.484      67    
   849.069   144.565   -5.763   0.281       -0.533      -0.012      68    
   974.113   148.453   -5.593   0.285       -0.081      0.274       69    
   1021.749  149.406   -5.831   0.216       -0.341      -0.034      70    
   1546.061  153.088   -5.736   0.300       -0.165      0.795       71    
   1843.006  153.418   -6.020   0.221       -0.289      0.268       72    
   1876.072  162.710   -5.885   0.206       -0.388      0.060       73    
   426.129   165.837   -5.057   0.226       -0.308      0.112       74    
   1652.053  172.690   -5.114   0.245       -0.055      -0.389      75    
   1727.380  170.156   -6.024   0.267       -0.071      0.538       76    
   577.521   175.366   -5.930   0.278       -0.192      -0.621      77    
   1086.074  176.092   -5.725   0.312       0.193       -0.097      78    
   1161.359  176.583   -5.385   0.376       -0.126      0.040       79    
   907.422   177.471   -5.426   0.203       -0.373      0.136       80    
   1112.857  177.104   -5.486   0.370       -0.081      0.201       81    
   846.184   178.397   -5.502   0.359       -0.001      0.528       82    
   1416.765  183.053   -5.676   0.420       0.063       0.717       83    
   1740.036  183.075   -5.826   0.212       -0.248      -0.010      84    
   1808.395  184.920   -5.673   0.391       -0.149      0.900       85    
   981.009   186.009   -5.834   0.342       -0.215      0.923       86    
   1344.943  185.434   -5.152   0.247       -0.254      -0.010      87    
   1123.563  188.570   -5.791   0.230       -0.048      0.025       88    
   1339.783  192.797   -5.134   0.220       -0.473      -0.029      89    
   469.274   194.292   -5.772   0.291       -0.206      -0.385      90    
   1042.305  194.556   -5.542   0.380       -0.128      0.821       91    
   843.235   197.501   -5.626   0.238       -0.816      0.000       92    
   957.091   197.245   -5.427   0.234       0.555       0.553       93    
   1142.498  198.542   -5.050   0.380       -0.125      -0.187      94    
   1802.694  201.385   -5.668   0.210       -0.539      -0.046      95    
   816.019   205.306   -5.855   0.310       -0.242      0.277       96    
   1387.409  200.900   -5.871   0.250       -0.221      -0.081      97    
   994.579   206.494   -5.141   0.285       0.275       -0.386      98    
   1000.608  207.120   -5.122   0.205       -0.099      0.317       99    
   505.023   209.445   -5.678   0.281       -0.055      -0.580      100   
   21.919    210.873   -5.952   0.210       -0.319      0.020       101   
   972.547   210.781   -4.763   0.203       -0.472      -0.305      102   
   1436.238  215.762   -6.032   0.240       -0.266      -0.372      103   
   958.912   213.562   -4.904   0.276       0.114       -0.884      104   
   715.112   216.411   -5.491   0.271       0.016       -0.760      105   
   799.583   215.411   -5.696   0.209       -0.432      -0.004      106   
   1699.888  214.174   -6.069   0.245       -0.192      0.767       107   
   1027.596  217.441   -5.879   0.220       -0.283      0.255       108   
   588.045   220.869   -5.753   0.347       -0.284      0.436       109   
   1317.845  219.605   -5.587   0.208       -0.692      -0.440      110   
   1869.750  220.559   -5.874   0.310       -0.386      0.045       111   
   343.172   222.719   -5.878   0.218       -0.275      0.364       112   
   1147.572  222.190   -5.318   0.234       0.534       -0.229      113   
   1383.101  222.747   -5.635   0.208       -0.421      0.004       114   
   1153.359  225.796   -5.020   0.346       0.002       0.089       115   
   1503.581  224.736   -5.130   0.253       -0.481      0.199       116   
   1643.662  223.739   -5.461   0.205       -0.328      0.039       117   
   1975.463  224.246   -5.965   0.217       -0.343      0.257       118   
   419.622   225.105   -5.770   0.233       -0.569      -0.008      119   
   698.088   226.304   -5.949   0.297       -0.242      0.372       120   
   598.632   228.782   -5.638   0.221       0.064       0.240       121   
   883.892   228.647   -5.554   0.436       -0.191      0.303       122   
   1577.427  230.095   -5.648   0.446       0.029       -0.070      123   
   1963.598  229.440   -5.468   0.459       -0.091      -0.875      124   
   1827.202  238.202   -5.997   0.284       -0.135      -0.368      125   
   69.784    232.542   -5.978   0.217       -0.199      0.332       126   
   1410.553  233.723   -5.896   0.222       -0.272      0.181       127   
   611.887   236.397   -5.676   0.344       -0.168      0.038       128   
   1118.015  237.413   -5.462   0.237       0.235       0.541       129   
   1153.776  237.053   -5.253   0.240       -0.017      0.223       130   
   418.438   238.005   -5.215   0.209       -0.189      0.246       131   
   700.288   237.088   -5.742   0.217       -0.281      0.048       132   
   1443.125  236.517   -5.666   0.315       -0.264      -0.065      133   
   1718.235  240.103   -5.863   0.294       -0.006      0.624       134   
   1992.892  240.763   -5.999   0.285       -0.037      0.148       135   
   1245.664  247.392   -5.396   0.375       -0.164      0.575       136   
   1078.559  248.051   -5.832   0.242       -0.373      0.059       137   
   424.652   250.698   -5.501   0.403       -0.165      0.827       138   
   1786.824  250.724   -4.978   0.542       -0.248      0.296       139   
   1150.779  252.932   -5.814   0.339       -0.082      -0.579      140   
   1558.127  250.851   -5.706   0.302       -0.039      0.941       141   
   851.801   254.036   -5.749   0.230       -0.284      0.061       142   
   267.871   254.055   -5.794   0.255       -0.046      0.269       143   
   1252.505  254.751   -4.939   0.622       -0.041      -0.091      144   
   1272.513  253.998   -5.520   0.210       -0.344      0.064       145   
   78.371    256.412   -5.559   0.310       -0.099      0.418       146   
   826.142   258.521   -5.373   0.396       -0.274      0.031       147   
   1626.047  260.130   -5.788   0.369       -0.049      0.406       148   
   1796.283  259.979   -5.246   0.219       -0.573      -0.065      149   
   1418.285  264.724   -5.328   0.258       -0.377      0.022       150   
   705.318   265.783   -5.369   0.201       -0.315      0.073       151   
   916.373   266.141   -4.902   0.658       0.460       0.526       152   
   1291.939  269.888   -5.207   0.240       -0.587      0.039       153   
   1231.515  271.259   -5.241   0.245       -0.577      -0.101      154   
   760.146   271.801   -5.702   0.226       -0.304      0.247       155   
   879.187   274.493   -5.940   0.269       -0.211      0.387       156   
   1893.746  272.201   -5.704   0.215       -0.404      0.082       157   
   1092.738  279.638   -5.858   0.238       -0.368      0.024       158   
   1013.211  285.386   -5.860   0.270       -0.307      0.068       159   
   1717.752  284.419   -5.532   0.262       -0.048      0.982       160   
   1910.248  285.456   -6.002   0.297       -0.074      0.579       161   
   1154.010  286.367   -5.580   0.208       -0.415      0.170       162   
   1426.588  286.292   -5.158   0.234       -0.402      -0.069      163   
   775.579   287.447   -5.772   0.262       -0.525      -0.094      164   
   50.640    290.592   -5.963   0.255       -0.196      0.912       165   
   973.906   297.522   -5.068   0.258       -0.062      -0.318      166   
   1521.542  297.100   -5.358   0.200       -0.328      0.038       167   
   597.822   302.154   -4.992   0.250       0.030       0.815       168   
   203.653   304.321   -5.056   0.238       -0.373      -0.051      169   
   514.751   304.691   -5.817   0.280       -0.265      -0.136      170   
   969.227   303.314   -5.095   0.249       -0.290      0.003       171   
   1818.368  305.203   -5.836   0.240       -0.516      0.287       172   
   591.992   305.057   -5.050   0.274       -0.363      -0.264      173   
   583.326   307.834   -5.702   0.365       0.013       0.599       174   
   304.501   310.415   -5.577   0.304       -0.018      0.913       175   
   753.688   311.019   -5.802   0.225       -0.199      -0.005      176   
   410.540   310.932   -5.719   0.271       0.036       -0.249      177   
   622.607   310.888   -5.754   0.214       -0.175      0.115       178   
   857.067   323.181   -5.409   0.426       -0.246      -0.260      179   
   1115.193  317.207   -5.803   0.348       -0.247      0.394       180   
   1721.901  312.647   -5.804   0.269       -0.238      0.228       181   
   1464.297  318.977   -5.900   0.228       -0.425      0.060       182   
   1944.549  318.795   -5.417   0.203       -0.423      0.136       183   
   1595.447  320.459   -5.889   0.209       -0.320      0.130       184   
   1650.839  322.029   -5.660   0.232       -0.700      -0.043      185   
   1094.560  323.415   -5.845   0.290       -0.327      0.232       186   
   1541.969  330.235   -5.797   0.322       -0.036      0.231       187   
   882.746   327.424   -5.584   0.435       -0.091      0.513       188   
   1180.084  327.309   -5.398   0.288       0.027       0.270       189   
   1528.469  328.613   -5.174   0.240       0.419       0.255       190   
   1669.374  327.357   -5.847   0.311       -0.150      0.276       191   
   1026.446  330.284   -5.874   0.270       -0.205      -0.328      192   
   918.079   333.096   -5.926   0.248       0.013       0.308       193   
   1661.409  334.063   -5.444   0.512       -0.062      0.646       194   
   1790.717  336.886   -5.696   0.216       -0.459      0.062       195   
   1974.166  339.093   -6.025   0.259       -0.214      0.645       196   
   770.798   339.618   -5.141   0.214       -0.060      -0.067      197   
   1366.607  340.517   -5.808   0.304       -0.186      0.769       198   
   1152.269  339.221   -5.914   0.269       -0.289      0.347       199   
   1336.088  342.391   -5.778   0.226       -0.424      0.047       200   
   312.902   343.472   -5.832   0.214       -0.366      -0.003      201   
   587.194   346.185   -5.818   0.284       -0.167      0.254       202   
   889.544   344.298   -5.788   0.229       -0.019      0.071       203   
   1833.924  345.359   -6.009   0.283       -0.059      0.150       204   
   799.069   344.313   -5.102   0.305       -0.114      -0.067      205   
   770.518   344.133   -5.032   0.337       0.381       0.105       206   
   865.299   347.337   -5.535   0.425       -0.395      0.187       207   
   1267.307  348.169   -5.523   0.239       -0.290      0.070       208   
   1071.741  347.885   -5.645   0.223       -0.576      -0.108      209   
   877.614   349.183   -5.757   0.251       -0.303      -0.001      210   
   977.349   343.428   -5.750   0.367       0.069       0.802       211   
   1181.006  350.891   -5.489   0.206       -0.272      -0.020      212   
   1322.569  355.008   -5.230   0.242       -0.693      0.239       213   
   999.824   355.727   -5.833   0.272       -0.320      -0.222      214   
   145.024   357.098   -5.560   0.264       -0.088      0.432       215   
   1260.884  358.805   -5.577   0.212       -0.798      0.210       216   
   1777.177  356.964   -5.714   0.209       -0.271      0.174       217   
   1319.267  360.325   -5.159   0.256       -0.347      0.060       218   
   743.308   362.467   -5.107   0.638       -0.112      0.581       219   
   1064.365  361.267   -5.319   0.267       0.506       -0.200      220   
   1408.848  361.732   -5.150   0.226       -0.481      -0.044      221   
   455.891   362.826   -5.529   0.372       0.029       -0.112      222   
   1680.087  363.311   -5.635   0.247       -0.140      -0.756      223   
   1226.081  366.420   -5.365   0.234       -0.393      -0.000      224   
   630.025   367.654   -5.813   0.233       -0.348      -0.073      225   
   973.238   367.297   -5.632   0.220       -0.325      0.095       226   
   1138.021  366.438   -5.798   0.229       -0.296      -0.038      227   
   733.057   367.539   -5.732   0.272       -0.383      -0.122      228   
   402.098   369.191   -5.435   0.202       -0.526      -0.015      229   
   61.770    368.520   -5.270   0.222       -0.296      0.022       230   
   588.081   370.904   -5.772   0.248       0.061       -0.099      231   
   1096.369  372.560   -5.403   0.218       -0.577      0.200       232   
   1025.930  374.032   -5.794   0.243       -0.356      0.133       233   
   1822.173  374.272   -5.717   0.339       -0.153      0.747       234   
   1062.817  377.086   -5.171   0.296       -0.364      0.014       235   
   1180.995  376.356   -5.713   0.371       0.021       -0.549      236   
   721.557   377.953   -5.875   0.253       -0.272      0.060       237   
   801.188   379.916   -5.405   0.394       -0.077      0.882       238   
   952.840   379.820   -5.615   0.342       -0.537      0.154       239   
   1060.381  380.893   -5.154   0.292       -0.511      -0.139      240   
   1144.466  386.475   -5.004   0.331       -0.282      0.199       241   
   861.454   386.032   -5.310   0.212       -0.490      0.197       242   
   1350.116  387.673   -5.459   0.209       -0.449      -0.082      243   
   162.155   389.209   -4.860   0.319       0.132       -0.514      244   
   1520.878  392.857   -5.928   0.278       -0.270      -0.018      245   
   658.157   388.875   -5.202   0.503       -0.081      -0.455      246   
   1191.036  391.450   -5.387   0.213       0.744       -0.111      247   
   530.141   390.502   -5.768   0.327       -0.183      0.621       248   
   1079.362  392.301   -5.342   0.419       -0.063      0.707       249   
   1486.027  389.653   -5.080   0.285       -0.104      0.607       250   
   1383.540  392.899   -5.769   0.212       -0.394      -0.006      251   
   879.721   394.660   -5.230   0.536       0.300       -0.608      252   
   1141.179  391.372   -5.013   0.360       -0.153      0.168       253   
   1085.001  395.234   -5.624   0.430       -0.103      0.231       254   
   1158.762  397.360   -4.980   0.341       0.022       -0.739      255   
   1479.654  393.943   -5.046   0.281       0.091       -0.398      256   
   805.720   393.359   -5.517   0.433       -0.045      0.762       257   
   1541.635  399.636   -5.134   0.575       -0.084      -0.882      258   
   1040.586  402.160   -5.410   0.249       -0.261      -0.043      259   
   1059.664  401.807   -4.889   0.502       0.034       -0.946      260   
   1226.256  395.511   -5.772   0.362       -0.193      0.093       261   
   1494.324  402.727   -5.762   0.259       -0.592      -0.367      262   
   1663.976  402.526   -5.783   0.331       -0.052      -0.006      263   
   831.993   403.140   -5.546   0.281       -0.749      -0.468      264   
   285.962   404.068   -5.471   0.330       0.095       0.603       265   
   889.097   404.874   -4.922   0.560       0.361       -0.073      266   
   1634.399  403.498   -5.778   0.225       -0.714      -0.104      267   
   1203.615  407.159   -5.854   0.220       -0.211      0.056       268   
   504.086   409.361   -5.694   0.223       -0.282      -0.097      269   
   1152.194  407.078   -5.321   0.313       -0.554      -0.179      270   
   821.019   409.312   -5.190   0.269       -0.422      0.220       271   
   1186.029  416.458   -5.827   0.228       -0.421      -0.036      272   
   752.888   425.415   -5.810   0.331       -0.207      0.637       273   
   1963.153  420.432   -5.984   0.281       -0.042      -0.326      274   
   480.456   421.951   -5.374   0.202       -0.100      0.003       275   
   244.953   423.357   -5.959   0.248       -0.149      0.532       276   
   526.277   423.165   -5.605   0.281       -0.128      0.556       277   
   1260.643  421.408   -5.277   0.246       -0.411      -0.059      278   
   656.128   423.989   -5.799   0.217       -0.372      -0.054      279   
   1527.855  424.724   -5.684   0.287       -0.194      0.589       280   
   888.607   424.996   -5.467   0.222       0.512       0.483       281   
   1103.833  425.192   -5.508   0.408       -0.067      -0.589      282   
   932.947   426.567   -5.212   0.474       -0.257      0.728       283   
   337.350   428.453   -5.834   0.252       -0.369      0.503       284   
   452.318   426.391   -5.973   0.233       -0.167      -0.311      285   
   907.344   426.975   -5.458   0.316       -0.957      -0.571      286   
   421.186   427.921   -5.665   0.305       -0.028      0.510       287   
   1752.522  428.472   -5.752   0.209       -0.372      0.155       288   
   1606.436  429.515   -5.847   0.292       -0.271      -0.061      289   
   1113.272  431.129   -5.718   0.219       -0.042      0.084       290   
   1586.502  431.551   -5.493   0.202       -0.543      -0.189      291   
   751.618   432.770   -5.278   0.552       -0.638      0.142       292   
   1247.892  434.243   -4.675   0.518       0.320       -0.088      293   
   298.989   435.636   -5.904   0.280       -0.125      0.163       294   
   534.495   435.172   -5.782   0.353       0.102       0.435       295   
   748.137   436.724   -5.610   0.342       -0.433      0.256       296   
   811.234   437.269   -5.793   0.287       -0.379      -0.515      297   
   985.240   436.000   -5.502   0.289       0.495       0.023       298   
   500.553   436.289   -5.164   0.252       -0.454      -0.242      299   
   582.604   439.526   -5.000   0.284       0.275       -0.606      300   
   1174.815  438.847   -5.652   0.207       -0.478      -0.006      301   
   377.870   440.430   -5.757   0.301       -0.392      0.430       302   
   468.125   442.628   -5.581   0.435       -0.056      0.127       303   
   669.517   441.491   -5.610   0.274       0.134       -0.107      304   
   897.378   443.301   -5.763   0.327       -0.338      0.007       305   
   440.579   442.406   -5.910   0.270       -0.265      0.353       306   
   1132.458  444.129   -5.845   0.241       -0.344      0.064       307   
   1190.925  443.863   -4.947   0.710       0.781       0.427       308   
   1242.672  444.147   -5.730   0.298       -0.514      0.095       309   
   1009.859  445.021   -5.363   0.277       -0.862      0.116       310   
   581.770   444.471   -5.015   0.286       -0.425      -0.684      311   
   675.716   441.218   -5.190   0.420       0.510       0.012       312   
   1664.627  445.243   -5.717   0.217       -0.385      0.014       313   
   263.270   448.453   -5.768   0.259       -0.141      -0.259      314   
   350.050   448.801   -5.998   0.238       -0.287      0.426       315   
   917.707   449.914   -5.505   0.420       -0.327      -0.055      316   
   959.429   449.458   -5.779   0.239       -0.365      -0.082      317   
   800.085   451.688   -3.772   0.947       -0.311      0.901       318   
   756.314   453.002   -5.237   0.369       -0.859      -0.720      319   
   1418.343  458.040   -5.799   0.302       -0.341      0.200       320   
   837.296   454.610   -4.947   0.647       0.204       0.214       321   
   1009.845  455.664   -5.346   0.256       0.538       0.694       322   
   1319.418  455.697   -5.598   0.419       -0.383      -0.290      323   
   751.806   455.488   -5.253   0.297       -0.822      0.231       324   
   870.513   457.805   -5.153   0.233       -0.198      -0.152      325   
   789.366   459.308   -4.905   0.282       0.338       -0.229      326   
   823.530   460.016   -5.568   0.204       -0.427      0.031       327   
   1171.324  457.910   -5.742   0.375       -0.139      0.335       328   
   1197.682  460.446   -5.538   0.244       0.451       0.106       329   
   730.709   460.977   -5.523   0.394       0.024       0.443       330   
   1500.219  462.073   -5.661   0.295       -0.246      0.823       331   
   636.623   464.414   -5.747   0.337       -0.016      0.392       332   
   839.318   464.170   -5.599   0.287       -0.144      0.042       333   
   794.066   464.089   -5.169   0.361       0.730       0.084       334   
   1326.210  467.542   -5.507   0.315       -0.915      0.153       335   
   715.961   469.263   -5.291   0.327       -0.845      0.825       336   
   933.605   468.517   -5.247   0.487       -0.099      0.722       337   
   1201.702  466.072   -5.463   0.373       0.188       0.147       338   
   1270.124  470.606   -5.108   0.277       -0.181      -0.299      339   
   649.843   468.490   -5.827   0.267       -0.086      -0.066      340   
   784.898   470.992   -5.605   0.319       -0.631      0.089       341   
   62.900    474.214   -5.977   0.269       -0.136      0.697       342   
   282.862   474.632   -5.957   0.248       -0.087      0.436       343   
   1846.422  473.989   -5.901   0.211       -0.491      0.332       344   
   1257.821  473.828   -5.304   0.253       -0.766      -0.650      345   
   1382.523  476.668   -5.163   0.265       -0.442      -0.004      346   
   1697.280  476.840   -5.828   0.314       -0.105      0.046       347   
   1968.061  476.058   -5.776   0.284       -0.100      0.982       348   
   712.122   475.678   -5.370   0.257       -0.589      0.024       349   
   610.688   479.006   -5.647   0.261       -0.359      -0.229      350   
   398.071   480.316   -5.719   0.284       -0.057      0.164       351   
   1191.750  480.151   -5.634   0.344       -0.261      0.320       352   
   1036.429  483.289   -5.025   0.292       0.025       -0.210      353   
   665.862   483.483   -4.950   0.232       -0.145      -0.902      354   
   975.436   482.671   -5.224   0.244       -0.188      -0.061      355   
   787.504   482.503   -5.302   0.441       -0.206      -0.178      356   
   816.110   482.880   -5.706   0.216       -0.178      0.071       357   
   588.639   479.672   -5.885   0.278       -0.185      0.106       358   
   645.812   484.277   -5.156   0.265       0.044       0.844       359   
   1240.012  485.507   -5.923   0.233       -0.390      0.193       360   
   619.527   488.236   -5.698   0.221       -0.407      0.090       361   
   671.558   488.896   -5.045   0.252       0.488       -0.014      362   
   1123.423  488.572   -5.646   0.260       -0.237      -0.353      363   
   1038.222  488.023   -4.901   0.349       0.220       0.096       364   
   468.849   491.399   -5.790   0.279       -0.251      -0.150      365   
   571.343   494.705   -5.390   0.395       -0.296      -0.464      366   
   663.388   488.964   -4.873   0.312       0.047       -0.522      367   
   1546.464  490.213   -5.620   0.274       0.353       -0.065      368   
   931.254   493.881   -5.104   0.330       -0.187      0.170       369   
   1182.431  485.940   -5.693   0.344       -0.182      -0.104      370   
   1920.549  491.948   -5.618   0.322       -0.195      -0.376      371   
   751.268   494.168   -5.680   0.298       -0.136      0.135       372   
   1513.543  496.126   -5.732   0.270       -0.286      -0.155      373   
   929.203   497.040   -4.963   0.255       0.057       0.463       374   
   1550.748  495.658   -5.345   0.455       0.388       -0.008      375   
   913.647   499.567   -5.484   0.402       -0.129      -0.451      376   
   1306.901  503.067   -5.778   0.333       -0.328      -0.304      377   
   1334.065  500.902   -5.837   0.298       -0.079      0.493       378   
   1725.406  500.795   -5.854   0.336       -0.063      0.744       379   
   933.902   498.981   -5.044   0.386       0.875       -0.199      380   
   368.359   503.496   -5.159   0.487       0.130       -0.560      381   
   862.286   500.385   -5.441   0.472       -0.512      -0.285      382   
   994.016   503.084   -5.686   0.246       -0.165      0.028       383   
   1610.062  503.148   -5.315   0.252       -0.609      -0.019      384   
   1677.933  503.984   -5.533   0.241       -0.221      0.364       385   
   586.246   506.466   -5.502   0.344       -0.067      0.494       386   
   794.948   505.903   -5.203   0.225       -0.222      -0.098      387   
   1858.489  505.899   -5.932   0.246       -0.289      0.313       388   
   965.498   507.403   -5.708   0.247       -0.401      -0.027      389   
   1186.729  507.921   -5.525   0.262       -0.094      0.070       390   
   1387.494  507.890   -5.422   0.235       -0.568      -0.187      391   
   1559.836  507.994   -5.754   0.217       -0.341      0.105       392   
   1199.578  511.136   -5.154   0.247       -0.199      -0.131      393   
   1973.638  503.721   -5.996   0.292       -0.110      0.014       394   
   994.926   514.699   -5.270   0.555       0.078       -0.034      395   
   627.520   516.127   -5.813   0.239       -0.349      -0.167      396   
   1330.163  513.783   -5.866   0.285       -0.426      0.427       397   
   1372.671  517.575   -5.679   0.239       -0.260      -0.043      398   
   1227.557  518.605   -5.052   0.490       -0.639      0.533       399   
   894.209   522.743   -5.706   0.337       -0.178      -0.789      400   
   1594.551  522.500   -5.232   0.237       -0.289      0.280       401   
   403.567   524.871   -5.660   0.296       0.169       -0.188      402   
   1130.527  523.236   -5.413   0.260       -0.610      -0.397      403   
   1289.008  525.973   -5.009   0.602       0.448       -0.734      404   
   1298.824  523.907   -5.522   0.228       -0.811      -0.321      405   
   1809.150  523.824   -5.971   0.285       -0.113      -0.042      406   
   1663.068  524.768   -5.770   0.222       0.074       0.502       407   
   31.911    526.059   -5.891   0.280       -0.073      0.276       408   
   1192.717  522.328   -5.627   0.355       -0.186      -0.013      409   
   1896.107  524.953   -5.946   0.201       -0.325      -0.214      410   
   1381.172  526.446   -5.209   0.594       -0.283      -0.452      411   
   998.803   528.287   -5.491   0.427       -0.201      0.064       412   
   1146.813  528.442   -5.302   0.267       -0.309      -0.197      413   
   1154.217  528.950   -5.165   0.226       -0.680      0.043       414   
   1402.081  528.707   -5.164   0.423       -0.099      0.382       415   
   238.419   529.880   -5.855   0.269       -0.106      0.626       416   
   692.745   531.044   -5.025   0.362       0.121       -0.568      417   
   1023.528  534.114   -4.895   0.299       -0.225      -0.698      418   
   1056.768  532.516   -5.589   0.218       -0.570      0.011       419   
   1850.993  532.417   -5.057   0.242       0.039       0.181       420   
   1120.148  530.079   -4.925   0.330       0.083       0.184       421   
   433.138   534.332   -5.547   0.310       -0.016      0.834       422   
   810.568   535.723   -5.438   0.469       -0.024      0.501       423   
   886.758   534.867   -5.785   0.259       -0.348      -0.139      424   
   1152.068  531.460   -5.158   0.329       -0.063      0.564       425   
   1454.031  537.077   -5.207   0.302       0.067       0.093       426   
   745.798   539.463   -5.174   0.220       -0.381      0.040       427   
   1845.914  537.861   -5.103   0.239       -0.317      -0.503      428   
   1496.883  542.700   -5.945   0.249       -0.169      0.540       429   
   1192.001  544.496   -5.776   0.343       -0.069      0.007       430   
   1613.024  544.298   -5.632   0.344       -0.027      0.769       431   
   1361.291  545.403   -5.597   0.245       -0.842      -0.299      432   
   778.641   541.253   -5.622   0.409       -0.221      0.370       433   
   1450.584  546.101   -5.067   0.258       -0.293      -0.212      434   
   891.789   548.315   -5.381   0.456       -0.175      0.049       435   
   405.188   549.792   -5.646   0.204       -0.221      0.040       436   
   541.096   549.362   -5.657   0.220       -0.414      -0.065      437   
   914.709   550.112   -5.567   0.441       0.092       -0.326      438   
   464.515   548.954   -5.793   0.255       -0.328      0.270       439   
   1249.913  549.278   -5.458   0.463       -0.178      -0.310      440   
   227.431   550.521   -5.873   0.217       -0.313      -0.185      441   
   822.903   551.203   -5.179   0.425       -0.046      -0.248      442   
   1344.733  554.245   -5.840   0.268       -0.378      0.108       443   
   1464.632  555.280   -5.163   0.265       -0.563      -0.053      444   
   1587.997  555.436   -5.632   0.342       -0.044      0.994       445   
   479.088   556.353   -5.542   0.203       -0.113      -0.006      446   
   1326.193  556.817   -5.082   0.375       -0.468      -0.016      447   
   1704.168  557.163   -5.916   0.219       -0.246      0.103       448   
   1566.661  553.077   -5.825   0.308       -0.330      0.903       449   
   940.968   560.189   -5.114   0.275       -0.139      -0.197      450   
   948.561   562.689   -5.073   0.303       -0.017      -0.184      451   
   795.391   567.836   -4.936   0.481       -0.189      0.478       452   
   1451.128  560.987   -5.718   0.359       -0.192      -0.284      453   
   994.754   562.931   -5.696   0.307       -0.359      -0.175      454   
   888.250   564.354   -5.850   0.266       -0.203      0.207       455   
   839.677   565.010   -5.658   0.231       -0.177      0.091       456   
   1267.000  566.170   -5.504   0.363       -0.260      0.275       457   
   961.822   568.131   -5.428   0.224       -0.536      0.204       458   
   580.157   572.281   -5.532   0.358       -0.077      -0.005      459   
   698.814   568.323   -5.645   0.341       -0.004      -0.567      460   
   1104.415  568.636   -5.702   0.359       -0.082      0.112       461   
   1348.375  569.024   -5.771   0.283       -0.120      -0.305      462   
   646.733   568.579   -5.748   0.258       -0.371      0.026       463   
   1015.732  569.403   -5.811   0.290       -0.357      0.435       464   
   1068.705  568.971   -4.756   0.471       -0.813      0.997       465   
   718.569   563.921   -5.755   0.297       -0.535      0.325       466   
   862.101   571.180   -5.573   0.240       -0.326      -0.106      467   
   339.730   572.567   -5.832   0.237       -0.326      0.121       468   
   1283.803  572.894   -5.283   0.524       -0.264      -0.363      469   
   1980.439  574.831   -6.072   0.245       -0.235      0.327       470   
   596.659   568.011   -5.386   0.440       0.529       0.503       471   
   981.100   574.899   -5.674   0.248       -0.577      0.136       472   
   1354.344  575.465   -4.357   0.571       -0.007      0.535       473   
   1025.102  576.141   -5.544   0.428       -0.138      -0.492      474   
   1158.370  575.972   -5.668   0.279       -0.454      0.123       475   
   832.413   579.046   -5.027   0.288       -0.235      0.106       476   
   948.385   579.304   -4.840   0.291       -0.053      -0.305      477   
   1123.885  576.436   -5.156   0.231       -0.531      -0.042      478   
   1813.284  575.125   -5.625   0.326       -0.129      0.456       479   
   1079.956  577.993   -5.494   0.470       -0.184      0.293       480   
   1047.128  584.037   -5.607   0.338       -0.440      -0.001      481   
   1369.062  581.583   -5.743   0.229       -0.200      0.004       482   
   1090.938  583.786   -5.481   0.207       -0.755      0.182       483   
   1106.245  582.712   -5.727   0.379       -0.287      0.284       484   
   1303.941  583.164   -5.730   0.230       -0.426      -0.109      485   
   822.019   583.088   -5.148   0.323       -0.084      0.416       486   
   915.067   585.147   -5.660   0.236       0.173       0.083       487   
   1040.073  586.936   -5.698   0.266       -0.566      -0.056      488   
   1353.863  589.850   -5.003   0.360       0.011       -0.503      489   
   1497.300  592.749   -4.833   0.614       -0.766      -0.181      490   
   1801.922  587.418   -5.774   0.267       -0.220      0.762       491   
   1858.894  586.922   -5.424   0.285       0.126       0.109       492   
   1893.245  580.580   -5.900   0.281       -0.135      0.074       493   
   838.197   586.682   -5.431   0.312       0.553       0.037       494   
   419.753   588.156   -5.047   0.273       -0.435      -0.453      495   
   761.818   589.663   -5.129   0.282       -0.064      0.182       496   
   855.114   590.659   -5.829   0.306       -0.401      -0.155      497   
   1435.641  588.547   -5.671   0.236       -0.513      0.059       498   
   1474.001  588.854   -5.767   0.222       -0.437      0.041       499   
   947.859   587.076   -5.046   0.344       -0.414      0.707       500   
   347.821   589.830   -5.141   0.264       -0.391      -0.228      501   
   1199.138  592.097   -4.994   0.517       0.077       0.136       502   
   1145.965  599.377   -5.091   0.429       -0.035      -0.352      503   
   2006.878  594.263   -5.256   0.208       -0.299      -0.011      504   
   1160.076  597.179   -5.722   0.303       -0.194      -0.354      505   
   717.198   597.001   -5.327   0.293       -0.881      -0.356      506   
   437.391   598.279   -5.138   0.221       0.079       0.730       507   
   1068.305  598.291   -5.505   0.259       -0.232      -0.286      508   
   683.193   600.288   -5.724   0.351       -0.158      -0.073      509   
   1189.068  600.401   -5.747   0.283       -0.445      0.182       510   
   1120.446  601.875   -5.798   0.239       -0.211      -0.101      511   
   1361.514  602.429   -5.371   0.261       0.046       0.032       512   
   1230.042  602.969   -5.786   0.234       -0.266      0.116       513   
   962.108   605.551   -5.313   0.321       -0.798      0.513       514   
   1378.990  605.030   -5.809   0.308       -0.311      0.039       515   
   892.116   606.605   -5.362   0.478       -0.807      -0.331      516   
   1019.283  606.173   -4.609   0.533       -0.313      0.757       517   
   993.475   608.979   -5.028   0.302       -0.224      0.020       518   
   1155.729  608.792   -5.366   0.466       -0.554      -0.094      519   
   864.898   610.216   -5.488   0.244       -0.361      -0.056      520   
   1138.509  610.356   -5.543   0.260       0.066       0.042       521   
   714.198   611.655   -5.674   0.240       -0.259      0.078       522   
   821.592   614.851   -5.739   0.316       -0.139      -0.098      523   
   1507.143  611.946   -5.963   0.224       -0.280      0.108       524   
   1084.564  610.143   -5.691   0.368       -0.149      0.083       525   
   990.218   613.771   -4.968   0.281       0.070       0.090       526   
   376.877   615.275   -5.158   0.223       -0.504      -0.143      527   
   392.299   615.588   -4.969   0.224       -0.306      0.133       528   
   1242.615  616.592   -5.842   0.252       -0.085      -0.306      529   
   1630.740  617.345   -5.439   0.258       -0.352      0.333       530   
   882.801   618.052   -5.603   0.220       -0.555      -0.060      531   
   1161.961  619.230   -5.093   0.278       -0.111      -0.028      532   
   815.269   624.202   -5.514   0.404       -0.337      0.227       533   
   2020.046  618.559   -5.926   0.209       -0.206      0.258       534   
   958.981   619.215   -4.873   0.338       0.686       0.437       535   
   1047.532  623.729   -4.899   0.336       -0.069      -0.237      536   
   1173.991  621.419   -4.536   0.679       0.129       -0.403      537   
   763.606   623.600   -5.643   0.232       -0.192      -0.017      538   
   1159.957  621.439   -5.072   0.342       -0.083      -0.077      539   
   742.922   625.193   -5.609   0.339       -0.132      0.290       540   
   1314.213  626.788   -5.888   0.237       -0.267      -0.142      541   
   1517.119  624.691   -5.150   0.266       -0.501      0.154       542   
   904.101   629.401   -5.537   0.370       -0.249      0.561       543   
   1011.907  626.404   -5.096   0.551       -0.605      0.073       544   
   1490.305  627.273   -5.574   0.201       -0.495      0.024       545   
   1437.121  628.487   -5.643   0.334       -0.079      0.843       546   
   797.062   629.422   -5.265   0.224       -0.643      -0.123      547   
   1051.959  629.050   -5.104   0.260       0.176       0.064       548   
   1179.761  629.275   -5.677   0.320       -0.081      0.323       549   
   1224.865  631.240   -5.054   0.274       -0.045      -0.328      550   
   1330.653  624.672   -5.157   0.380       -0.130      0.904       551   
   1032.715  634.108   -5.724   0.239       -0.102      -0.064      552   
   641.521   635.609   -5.791   0.319       -0.074      0.505       553   
   1157.926  641.501   -5.010   0.346       -0.186      -0.250      554   
   533.309   640.758   -5.165   0.219       -0.603      0.337       555   
   832.624   640.889   -5.508   0.462       -0.119      -0.477      556   
   1930.989  641.929   -5.873   0.208       -0.418      0.166       557   
   870.333   642.412   -5.703   0.246       -0.355      0.009       558   
   1047.267  643.034   -5.411   0.383       -0.476      -0.187      559   
   206.948   639.860   -5.922   0.215       -0.202      0.523       560   
   1197.423  644.983   -5.439   0.239       -0.441      0.127       561   
   1219.998  642.936   -5.013   0.310       -0.412      -0.025      562   
   1235.848  644.623   -5.416   0.417       -0.271      0.786       563   
   1416.139  645.230   -5.621   0.226       -0.404      -0.005      564   
   1600.419  644.279   -5.743   0.290       -0.259      -0.057      565   
   1080.234  645.604   -5.443   0.290       -0.734      -0.294      566   
   1155.237  644.891   -5.062   0.273       -0.018      0.151       567   
   668.515   648.341   -5.461   0.210       -0.473      -0.041      568   
   1466.209  649.284   -5.849   0.266       -0.297      0.107       569   
   888.981   649.961   -5.275   0.507       -0.117      0.085       570   
   821.548   650.512   -5.507   0.256       -0.215      -0.576      571   
   1138.279  651.447   -5.505   0.209       -0.618      0.102       572   
   546.483   652.984   -5.041   0.228       -0.160      -0.031      573   
   1298.733  651.837   -5.592   0.369       0.005       0.049       574   
   1117.175  654.694   -5.275   0.268       -0.141      0.091       575   
   1273.162  652.562   -5.244   0.548       -0.713      0.479       576   
   98.702    653.350   -5.956   0.235       -0.159      0.615       577   
   1092.572  654.288   -5.688   0.305       -0.571      -0.103      578   
   1757.123  655.219   -5.684   0.209       -0.378      -0.041      579   
   1625.096  656.373   -5.572   0.308       -0.174      -0.112      580   
   923.373   658.271   -5.153   0.282       -0.428      0.119       581   
   961.784   657.471   -5.816   0.269       -0.177      -0.016      582   
   1059.741  655.761   -5.534   0.251       -0.679      0.096       583   
   1216.317  652.666   -5.042   0.595       -0.228      -0.243      584   
   1484.937  657.829   -5.289   0.240       0.338       -0.292      585   
   1081.671  658.314   -5.109   0.592       -0.190      0.274       586   
   1157.998  658.866   -4.011   0.627       -0.167      -0.855      587   
   885.163   660.092   -5.489   0.410       -0.192      -0.004      588   
   1308.237  657.787   -5.739   0.294       -0.349      0.042       589   
   1494.963  659.976   -5.076   0.268       -0.026      0.233       590   
   759.873   662.585   -5.714   0.369       -0.183      0.339       591   
   921.417   659.873   -5.104   0.292       -0.373      0.519       592   
   1031.258  662.980   -5.317   0.435       -0.273      0.000       593   
   1152.661  666.228   -4.452   0.727       -0.716      0.046       594   
   1164.221  665.629   -5.146   0.578       -0.084      0.031       595   
   1099.539  667.068   -5.348   0.500       -0.458      0.465       596   
   471.250   668.409   -5.653   0.317       -0.141      0.207       597   
   1212.223  664.274   -5.072   0.420       0.118       -0.833      598   
   1248.680  668.381   -5.384   0.236       -0.026      0.415       599   
   1458.356  670.855   -5.895   0.253       -0.115      0.089       600   
   1473.279  668.234   -5.732   0.340       -0.199      -0.269      601   
   1080.486  671.631   -5.677   0.264       -0.592      0.106       602   
   217.774   672.761   -5.158   0.213       -0.319      0.262       603   
   699.341   672.616   -5.782   0.243       -0.471      0.116       604   
   1287.258  676.545   -5.289   0.249       0.275       0.448       605   
   682.020   674.870   -5.808   0.263       -0.312      0.115       606   
   1145.018  676.675   -5.619   0.242       -0.984      0.085       607   
   654.977   678.477   -5.567   0.341       0.056       -0.158      608   
   1358.469  682.414   -5.519   0.413       0.174       -0.662      609   
   743.591   679.563   -5.642   0.265       -0.504      0.001       610   
   788.200   680.270   -5.539   0.362       -0.174      -0.597      611   
   1032.977  680.326   -4.822   0.461       0.180       0.226       612   
   1227.899  675.774   -5.706   0.355       -0.142      0.042       613   
   1431.479  679.210   -5.569   0.234       -0.599      0.040       614   
   1467.664  680.412   -5.673   0.334       -0.283      0.180       615   
   1745.994  680.392   -5.791   0.276       -0.039      0.843       616   
   905.157   681.829   -5.277   0.230       -0.099      0.196       617   
   1207.475  685.455   -5.024   0.362       0.669       -0.010      618   
   31.785    682.027   -5.692   0.292       0.298       0.495       619   
   1117.983  683.981   -5.411   0.230       -0.592      -0.016      620   
   1248.248  682.675   -5.436   0.459       -0.085      -0.770      621   
   1308.883  685.057   -5.165   0.278       -0.429      0.169       622   
   1655.071  683.304   -5.358   0.206       -0.353      0.020       623   
   1258.417  683.063   -5.021   0.250       -0.130      -0.017      624   
   876.363   686.745   -5.406   0.213       -0.505      0.113       625   
   1073.569  686.891   -5.453   0.243       -0.366      0.125       626   
   1094.220  688.973   -5.332   0.253       0.263       0.878       627   
   1498.909  686.590   -5.831   0.249       -0.062      0.186       628   
   1538.811  689.609   -5.278   0.211       -0.545      0.047       629   
   619.046   692.156   -5.248   0.212       -0.029      -0.104      630   
   709.308   690.955   -4.966   0.694       -0.613      0.570       631   
   1418.891  689.475   -5.028   0.240       -0.222      -0.249      632   
   964.870   693.924   -5.425   0.463       0.023       -0.180      633   
   1113.091  691.174   -5.475   0.335       -0.872      0.184       634   
   976.867   692.852   -5.576   0.382       -0.283      0.083       635   
   1053.133  692.623   -5.408   0.375       -0.104      0.157       636   
   637.762   694.894   -5.608   0.249       -0.431      -0.037      637   
   762.141   695.068   -5.791   0.276       -0.130      0.067       638   
   1204.434  696.911   -5.371   0.233       -0.555      -0.142      639   
   1094.487  694.970   -5.162   0.250       -0.445      0.011       640   
   1791.257  694.695   -5.164   0.507       -0.468      0.406       641   
   530.918   697.313   -5.541   0.219       -0.368      -0.031      642   
   702.506   695.595   -5.646   0.285       -0.572      -0.081      643   
   1633.328  699.426   -5.105   0.250       -0.132      -0.267      644   
   950.640   700.121   -5.606   0.242       -0.404      -0.064      645   
   1068.585  701.835   -4.893   0.359       0.078       0.774       646   
   1074.049  701.185   -4.897   0.274       -0.077      0.905       647   
   190.845   701.797   -5.856   0.210       -0.139      0.085       648   
   1258.253  704.426   -5.448   0.501       -0.441      -0.150      649   
   1393.404  703.070   -5.273   0.255       -0.178      -0.101      650   
   299.357   699.069   -5.712   0.296       -0.088      -0.733      651   
   928.798   704.928   -5.800   0.276       -0.245      -0.242      652   
   969.964   701.560   -5.638   0.310       -0.336      -0.097      653   
   1681.553  702.304   -5.869   0.238       -0.207      0.159       654   
   715.834   706.070   -5.675   0.298       -0.239      -0.187      655   
   786.406   704.577   -5.620   0.377       -0.267      0.974       656   
   1197.524  703.353   -5.368   0.307       -0.807      -0.683      657   
   1432.657  707.509   -5.009   0.334       0.128       0.315       658   
   461.113   705.029   -5.577   0.282       -0.054      0.926       659   
   1271.635  704.853   -5.562   0.232       -0.606      0.022       660   
   841.955   706.090   -5.401   0.207       -0.420      0.251       661   
   1633.536  706.165   -4.975   0.267       -0.123      -0.699      662   
   648.003   710.395   -5.320   0.362       -0.432      0.981       663   
   669.991   711.843   -5.279   0.426       -0.063      0.756       664   
   1264.919  712.857   -5.224   0.244       -0.275      -0.038      665   
   1429.310  713.803   -5.003   0.289       -0.145      -0.268      666   
   1679.679  715.130   -5.833   0.239       -0.333      0.185       667   
   720.197   713.962   -5.739   0.289       -0.507      -0.128      668   
   1757.105  716.248   -5.850   0.211       -0.443      -0.331      669   
   830.722   718.776   -5.651   0.327       -0.260      0.089       670   
   692.481   722.733   -5.734   0.284       -0.285      0.075       671   
   1072.797  723.085   -4.809   0.278       0.105       0.177       672   
   1992.021  720.855   -5.984   0.217       -0.183      0.169       673   
   814.588   723.159   -5.662   0.325       -0.111      -0.284      674   
   899.703   724.959   -5.387   0.431       0.650       0.103       675   
   1369.217  724.310   -5.277   0.224       -0.735      0.023       676   
   1783.958  725.116   -4.981   0.256       -0.021      -0.760      677   
   327.908   725.267   -5.727   0.208       -0.325      0.012       678   
   1042.163  726.115   -4.853   0.645       -0.711      0.500       679   
   1154.448  722.941   -5.580   0.360       -0.469      0.079       680   
   1222.862  724.373   -5.256   0.278       -0.615      0.001       681   
   917.796   728.113   -4.320   0.422       0.306       0.842       682   
   826.917   728.732   -5.610   0.276       -0.470      0.080       683   
   1118.920  729.555   -5.287   0.465       -0.159      -0.791      684   
   1267.561  729.044   -5.682   0.236       -0.408      0.099       685   
   1391.135  730.211   -5.085   0.229       -0.070      -0.074      686   
   1406.736  729.505   -5.321   0.555       -0.029      -0.347      687   
   1075.931  729.183   -4.773   0.351       -0.376      0.475       688   
   615.893   732.953   -5.595   0.215       -0.395      -0.085      689   
   863.003   733.053   -5.593   0.431       -0.040      0.964       690   
   906.143   733.100   -4.356   0.566       0.184       0.411       691   
   1506.004  733.310   -5.643   0.216       -0.395      0.050       692   
   1780.591  732.510   -4.986   0.302       -0.462      -0.473      693   
   799.812   735.885   -5.250   0.547       0.222       -0.430      694   
   955.480   736.038   -5.210   0.248       -0.373      -0.076      695   
   1906.227  735.221   -5.266   0.397       -0.835      0.294       696   
   929.910   738.361   -5.361   0.420       -0.388      0.780       697   
   459.781   737.952   -5.057   0.557       0.028       -0.714      698   
   673.101   736.840   -5.480   0.438       -0.159      0.251       699   
   1691.471  737.291   -5.541   0.285       -0.103      0.999       700   
   1410.764  737.450   -4.537   0.700       0.019       -0.135      701   
   1573.489  736.266   -5.661   0.304       -0.148      0.130       702   
   885.421   739.371   -5.250   0.508       0.084       -0.220      703   
   431.747   738.845   -5.517   0.212       -0.652      -0.062      704   
   1628.193  745.332   -5.771   0.308       -0.168      0.027       705   
   1074.652  740.862   -4.818   0.357       -0.099      0.779       706   
   1448.601  742.111   -5.759   0.353       -0.283      0.122       707   
   235.155   741.063   -5.575   0.225       -0.408      -0.456      708   
   761.523   744.289   -4.857   0.302       0.078       -0.183      709   
   912.230   741.284   -4.851   0.493       -0.058      -0.645      710   
   1067.947  743.703   -5.021   0.289       0.294       0.462       711   
   1163.210  741.865   -5.416   0.349       -0.058      0.947       712   
   1279.511  742.284   -4.911   0.569       -0.559      0.812       713   
   1898.584  742.219   -5.586   0.256       -0.709      0.074       714   
   756.846   745.737   -4.826   0.300       -0.590      0.073       715   
   950.965   743.237   -5.233   0.263       -0.930      0.239       716   
   1176.595  743.783   -5.010   0.503       -0.246      -0.096      717   
   1651.365  741.996   -5.754   0.211       -0.307      0.187       718   
   832.824   744.843   -5.699   0.270       -0.691      -0.126      719   
   960.926   745.929   -5.429   0.360       0.557       -0.093      720   
   1070.741  744.609   -4.800   0.289       -0.578      -0.503      721   
   521.569   748.813   -5.739   0.263       -0.250      -0.234      722   
   1102.058  750.967   -4.484   0.610       -0.735      -0.201      723   
   1289.875  748.890   -5.780   0.255       -0.325      0.000       724   
   796.275   751.867   -5.131   0.300       -0.243      0.081       725   
   873.853   750.421   -5.486   0.263       0.082       0.023       726   
   1015.359  752.478   -5.525   0.355       -0.353      0.211       727   
   1265.565  754.118   -5.325   0.472       -0.246      0.905       728   
   1478.411  752.187   -5.305   0.277       -0.229      0.679       729   
   966.857   753.215   -4.937   0.669       0.445       0.509       730   
   757.317   751.434   -4.853   0.313       0.075       -0.291      731   
   882.559   756.026   -4.928   0.336       -0.490      -0.492      732   
   928.241   753.628   -4.225   0.623       0.162       -0.817      733   
   1092.399  754.074   -4.722   0.651       0.105       -0.351      734   
   946.862   754.623   -5.619   0.251       -0.494      0.272       735   
   1581.243  752.348   -5.742   0.337       -0.108      0.923       736   
   463.223   757.104   -4.979   0.215       0.035       -0.433      737   
   1079.513  756.099   -5.326   0.540       -0.429      -0.415      738   
   1627.269  757.182   -5.815   0.244       -0.175      0.236       739   
   1941.442  757.474   -5.709   0.296       0.017       0.445       740   
   1066.004  761.431   -4.813   0.294       -0.005      -0.059      741   
   1570.227  762.722   -5.817   0.305       -0.327      -0.005      742   
   1658.998  762.286   -5.346   0.482       -0.454      0.317       743   
   457.601   763.153   -4.900   0.270       -0.164      -0.140      744   
   523.298   763.215   -5.603   0.310       -0.112      0.932       745   
   1097.435  763.977   -5.118   0.502       -0.108      0.863       746   
   1457.801  760.709   -5.357   0.453       0.106       -0.009      747   
   1006.345  764.512   -5.434   0.221       -0.217      0.279       748   
   621.646   765.583   -5.762   0.285       -0.323      0.132       749   
   741.659   765.711   -5.555   0.383       -0.547      -0.328      750   
   900.478   771.927   -4.672   0.327       0.548       -0.356      751   
   1356.644  768.688   -5.008   0.379       0.114       0.133       752   
   831.967   767.623   -5.656   0.294       0.452       0.190       753   
   1335.483  768.417   -4.827   0.475       -0.703      -0.570      754   
   389.384   768.568   -5.238   0.242       -0.488      0.263       755   
   884.470   767.885   -4.932   0.346       0.512       0.249       756   
   573.067   770.183   -5.304   0.486       -0.425      0.162       757   
   1079.582  772.271   -5.009   0.318       0.209       -0.375      758   
   131.922   771.807   -4.981   0.211       -0.220      -0.178      759   
   1098.618  770.865   -5.387   0.326       0.171       -0.099      760   
   939.128   773.444   -5.479   0.417       -0.282      0.047       761   
   375.991   777.121   -5.524   0.296       -0.301      0.315       762   
   962.498   776.716   -5.295   0.417       -0.450      0.255       763   
   1009.974  770.563   -4.435   0.492       0.348       0.023       764   
   1083.754  775.742   -4.909   0.293       -0.125      0.346       765   
   1118.474  775.191   -5.161   0.495       0.577       -0.253      766   
   1065.937  773.005   -4.811   0.326       0.348       0.003       767   
   1108.441  775.543   -5.507   0.329       0.271       -0.364      768   
   1352.361  773.971   -4.916   0.323       0.100       -0.350      769   
   949.774   776.735   -4.830   0.573       0.067       0.111       770   
   128.983   776.597   -4.983   0.273       -0.974      -0.342      771   
   715.974   780.600   -5.771   0.264       -0.266      -0.155      772   
   1081.131  777.317   -4.813   0.259       -0.703      0.250       773   
   1291.931  781.664   -5.824   0.248       -0.464      -0.007      774   
   372.330   782.837   -5.490   0.240       -0.699      -0.050      775   
   1310.000  780.698   -5.655   0.328       -0.263      0.234       776   
   4.544     785.879   -5.202   0.214       -0.344      -0.584      777   
   57.126    789.507   -5.911   0.273       -0.008      -0.632      778   
   529.196   786.054   -5.709   0.239       -0.446      0.078       779   
   606.770   786.682   -5.458   0.453       -0.358      -0.410      780   
   862.500   787.283   -5.549   0.232       -0.266      0.160       781   
   970.184   788.677   -5.405   0.239       -0.296      -0.001      782   
   1501.541  788.408   -5.632   0.253       -0.487      -0.465      783   
   958.096   786.777   -5.132   0.305       -0.468      0.495       784   
   1917.673  786.820   -6.012   0.246       -0.238      0.194       785   
   1076.440  789.564   -5.241   0.435       -0.621      0.694       786   
   1353.643  791.969   -5.404   0.441       -0.701      0.439       787   
   357.787   790.327   -5.828   0.266       -0.143      0.093       788   
   678.209   792.889   -5.751   0.269       -0.366      0.028       789   
   873.767   794.008   -5.451   0.226       -0.537      0.010       790   
   1270.680  791.261   -5.249   0.527       -0.278      0.656       791   
   1095.719  796.244   -5.494   0.415       -0.292      -0.146      792   
   1169.567  794.414   -5.370   0.519       -0.516      0.482       793   
   611.342   794.869   -5.805   0.273       -0.255      -0.110      794   
   991.133   794.932   -5.447   0.401       -0.589      0.256       795   
   1564.727  796.979   -5.711   0.389       -0.181      0.303       796   
   151.931   800.091   -5.878   0.249       -0.033      0.817       797   
   466.656   798.719   -5.371   0.231       -0.650      -0.155      798   
   1058.420  799.057   -4.171   0.542       0.692       0.076       799   
   1124.451  799.484   -5.608   0.277       -0.216      0.058       800   
   934.737   800.992   -5.019   0.572       0.017       0.040       801   
   1014.077  800.778   -5.740   0.246       -0.588      0.045       802   
   808.806   802.488   -5.552   0.358       0.057       0.814       803   
   944.599   802.977   -5.502   0.269       -0.906      0.194       804   
   972.254   802.109   -5.509   0.412       -0.037      -0.138      805   
   870.684   804.872   -4.911   0.476       -0.028      0.520       806   
   1045.314  805.975   -5.225   0.306       -0.581      0.249       807   
   461.603   803.592   -5.270   0.312       -0.991      -0.075      808   
   839.946   803.906   -5.463   0.333       -0.957      -0.584      809   
   886.607   807.829   -4.584   0.333       0.493       -0.077      810   
   1352.868  806.184   -5.205   0.231       -0.126      -0.173      811   
   991.173   809.672   -5.166   0.270       -0.255      0.194       812   
   857.032   807.522   -5.502   0.333       -0.569      -0.185      813   
   1095.477  811.915   -5.502   0.419       -0.162      -0.091      814   
   1330.716  809.331   -5.540   0.209       -0.358      0.062       815   
   271.292   811.720   -5.905   0.288       -0.049      0.813       816   
   681.625   812.956   -4.847   0.290       0.387       -0.828      817   
   965.112   808.897   -5.253   0.385       -0.203      -0.354      818   
   1240.412  813.846   -5.668   0.386       -0.062      0.404       819   
   242.699   814.269   -5.951   0.237       -0.187      0.336       820   
   895.276   811.178   -4.955   0.266       0.103       -0.918      821   
   1159.087  812.157   -4.697   0.670       0.320       -0.278      822   
   1041.249  812.467   -4.896   0.292       0.465       0.543       823   
   1181.304  815.484   -5.608   0.289       -0.610      0.147       824   
   1374.952  813.436   -5.774   0.264       -0.226      -0.140      825   
   1025.957  814.889   -4.305   0.425       0.413       0.506       826   
   1146.000  813.202   -5.338   0.280       -0.066      0.221       827   
   478.044   817.131   -5.572   0.214       -0.478      -0.099      828   
   689.208   817.194   -5.158   0.242       -0.033      -0.166      829   
   1054.026  817.559   -5.493   0.320       0.078       -0.526      830   
   1436.350  819.199   -5.297   0.229       -0.331      0.203       831   
   881.690   815.865   -4.307   0.334       -0.494      0.387       832   
   1094.817  820.510   -5.409   0.205       -0.587      0.027       833   
   1407.263  822.727   -5.046   0.326       -0.148      -0.010      834   
   1755.811  821.316   -5.385   0.252       0.086       0.587       835   
   526.379   823.697   -5.695   0.262       -0.269      0.102       836   
   1159.109  822.630   -5.535   0.311       -0.831      0.116       837   
   1708.853  822.846   -5.888   0.228       -0.301      0.468       838   
   436.028   824.183   -5.826   0.217       -0.284      -0.394      839   
   987.380   822.689   -4.816   0.295       0.536       0.170       840   
   1002.165  825.975   -4.926   0.298       -0.373      0.330       841   
   1124.758  823.571   -5.740   0.281       -0.232      -0.125      842   
   1663.649  824.317   -5.658   0.282       -0.084      -0.495      843   
   746.971   826.413   -5.734   0.322       -0.426      0.316       844   
   1835.101  826.043   -5.424   0.214       -0.015      0.886       845   
   639.387   832.901   -5.700   0.312       -0.053      -0.125      846   
   771.576   826.645   -5.697   0.233       -0.157      -0.082      847   
   1475.463  827.660   -5.206   0.462       -0.334      -0.248      848   
   577.072   827.658   -5.531   0.424       -0.227      0.029       849   
   874.086   828.885   -5.066   0.221       0.452       0.225       850   
   1298.145  828.839   -5.148   0.253       -0.441      -0.128      851   
   670.189   833.117   -5.130   0.599       -0.702      -0.165      852   
   1059.414  832.277   -5.258   0.260       -0.686      0.095       853   
   1290.453  833.329   -5.018   0.343       0.498       -0.054      854   
   1146.728  834.391   -5.618   0.242       -0.684      -0.307      855   
   678.583   831.833   -5.217   0.449       0.176       0.416       856   
   1394.116  832.800   -5.065   0.287       -0.295      0.342       857   
   875.788   833.989   -5.018   0.260       -0.142      -0.178      858   
   543.842   836.972   -5.601   0.233       -0.786      0.052       859   
   1080.896  837.617   -5.605   0.378       -0.257      0.120       860   
   1181.654  840.354   -4.801   0.383       -0.852      0.379       861   
   1372.283  839.507   -5.816   0.294       -0.501      0.105       862   
   1472.062  838.188   -5.762   0.316       -0.278      -0.183      863   
   123.797   839.149   -5.455   0.441       -0.037      -0.303      864   
   422.283   839.389   -5.708   0.344       -0.108      0.719       865   
   146.577   837.723   -5.849   0.248       -0.233      0.051       866   
   816.582   840.610   -5.405   0.473       -0.014      -0.262      867   
   1043.236  835.023   -4.737   0.632       -0.915      -0.519      868   
   888.405   842.191   -5.347   0.315       0.489       0.148       869   
   925.732   841.650   -5.029   0.336       0.221       -0.615      870   
   1345.283  841.593   -5.282   0.230       -0.121      0.131       871   
   796.623   842.400   -5.564   0.410       -0.073      0.353       872   
   495.530   843.145   -5.680   0.298       -0.173      -0.544      873   
   780.216   840.421   -5.361   0.486       0.293       -0.123      874   
   1297.774  843.000   -4.724   0.323       0.493       0.901       875   
   1385.785  843.698   -5.687   0.246       -0.413      -0.241      876   
   713.349   844.971   -5.575   0.229       -0.230      0.273       877   
   903.420   845.507   -5.461   0.232       -0.516      -0.273      878   
   613.763   845.216   -5.738   0.284       -0.346      0.480       879   
   673.984   845.811   -4.263   0.482       -0.063      -0.689      880   
   839.414   846.523   -5.080   0.291       -0.164      0.403       881   
   926.546   843.215   -5.020   0.335       -0.118      -0.353      882   
   1326.286  846.873   -5.414   0.250       -0.395      0.910       883   
   892.793   846.720   -5.140   0.359       0.228       -0.457      884   
   1158.353  848.744   -5.184   0.207       -0.590      -0.177      885   
   1177.910  845.186   -4.959   0.362       0.007       0.007       886   
   980.057   849.787   -3.889   0.619       0.787       -0.868      887   
   1012.310  849.043   -5.511   0.280       -0.660      -0.608      888   
   768.306   851.771   -5.225   0.231       -0.608      -0.114      889   
   836.355   849.450   -5.038   0.310       -0.300      -0.338      890   
   478.373   852.420   -5.798   0.283       -0.194      0.207       891   
   1112.196  852.407   -5.697   0.332       -0.021      -0.237      892   
   1194.129  854.086   -5.672   0.289       -0.617      0.214       893   
   1577.376  855.274   -5.661   0.337       0.267       -0.357      894   
   438.000   853.906   -5.816   0.219       -0.342      0.080       895   
   593.958   855.308   -5.267   0.253       -0.037      0.445       896   
   755.155   853.828   -5.219   0.281       -0.972      -0.128      897   
   709.916   855.936   -5.633   0.243       -0.385      0.329       898   
   795.142   857.377   -5.800   0.269       -0.149      -0.015      899   
   967.368   857.993   -5.267   0.211       -0.223      0.168       900   
   629.310   858.081   -5.701   0.220       -0.311      -0.212      901   
   1220.854  859.632   -5.199   0.285       -0.299      0.084       902   
   1287.850  856.948   -5.427   0.229       -0.831      -0.002      903   
   1069.885  860.271   -5.101   0.291       0.252       0.012       904   
   1388.287  860.312   -5.624   0.219       -0.395      0.071       905   
   683.851   854.852   -5.395   0.456       0.013       0.264       906   
   1855.862  861.779   -5.194   0.251       -0.476      0.072       907   
   71.446    864.220   -5.808   0.253       -0.183      0.331       908   
   665.943   863.500   -5.573   0.359       -0.081      0.815       909   
   1331.057  862.652   -4.861   0.417       -0.562      -0.474      910   
   948.990   863.526   -5.568   0.264       -0.574      0.026       911   
   807.973   865.579   -5.657   0.254       -0.304      0.140       912   
   1034.667  862.113   -5.663   0.366       -0.201      0.091       913   
   1254.581  866.500   -5.234   0.266       -0.372      -0.025      914   
   831.342   866.610   -5.328   0.210       -0.488      -0.016      915   
   992.337   868.958   -5.560   0.221       0.259       -0.143      916   
   1780.906  865.516   -5.892   0.273       -0.152      0.134       917   
   1009.888  870.112   -5.613   0.223       -0.405      0.047       918   
   846.161   872.908   -5.187   0.251       -0.197      -0.030      919   
   1440.013  872.830   -4.935   0.271       -0.153      -0.879      920   
   1088.857  872.967   -5.700   0.306       -0.066      -0.146      921   
   758.876   873.667   -5.736   0.254       -0.248      -0.055      922   
   799.928   873.890   -5.598   0.238       -0.704      -0.141      923   
   1206.827  874.380   -5.447   0.277       -0.440      -0.239      924   
   1348.135  873.828   -5.242   0.218       -0.302      -0.218      925   
   1359.871  875.212   -5.073   0.214       0.033       -0.560      926   
   266.227   872.854   -5.950   0.218       -0.237      0.414       927   
   541.172   876.461   -5.362   0.243       -0.727      -0.480      928   
   818.819   876.074   -5.032   0.549       -0.102      0.515       929   
   905.184   876.262   -5.703   0.230       -0.572      -0.002      930   
   963.196   875.894   -4.791   0.386       0.009       -0.842      931   
   1185.280  876.744   -4.918   0.613       0.098       -0.346      932   
   1318.829  877.107   -5.623   0.394       -0.161      0.013       933   
   1371.131  877.296   -5.478   0.231       0.091       -0.301      934   
   1594.153  877.717   -5.393   0.202       -0.570      0.064       935   
   1291.663  878.989   -5.317   0.208       0.045       0.327       936   
   621.930   882.097   -5.671   0.228       -0.335      0.044       937   
   963.677   878.654   -4.755   0.388       0.207       -0.409      938   
   1485.104  885.392   -5.753   0.227       -0.328      0.068       939   
   828.896   886.522   -5.700   0.241       -0.361      -0.042      940   
   998.310   880.654   -4.949   0.420       -0.288      -0.301      941   
   1126.189  886.625   -5.217   0.263       -0.815      -0.563      942   
   1221.231  889.078   -4.941   0.328       0.473       -0.167      943   
   1227.721  887.684   -5.095   0.281       0.076       0.098       944   
   1443.931  884.848   -4.897   0.354       -0.076      0.091       945   
   1425.044  889.218   -5.136   0.602       0.249       -0.366      946   
   176.745   891.216   -5.918   0.281       -0.039      0.456       947   
   1140.259  892.180   -5.124   0.265       -0.240      -0.094      948   
   1171.865  889.468   -5.170   0.295       -0.501      -0.043      949   
   1314.468  891.057   -5.171   0.401       -0.468      0.350       950   
   499.957   891.593   -5.817   0.217       -0.228      0.310       951   
   860.170   895.265   -4.767   0.385       -0.385      -0.382      952   
   1052.374  892.506   -5.199   0.513       0.004       -0.403      953   
   1457.755  898.723   -5.899   0.278       -0.203      0.525       954   
   1222.873  891.638   -4.977   0.311       -0.285      -0.471      955   
   1273.798  894.353   -5.020   0.492       -0.285      0.151       956   
   1544.168  895.054   -5.271   0.203       -0.233      0.121       957   
   878.431   895.932   -5.550   0.234       -0.714      -0.193      958   
   1045.974  897.070   -5.224   0.246       -0.166      -0.006      959   
   1431.950  895.643   -5.676   0.272       -0.155      -0.028      960   
   348.193   898.306   -5.825   0.303       -0.108      0.104       961   
   529.366   897.499   -5.840   0.283       -0.180      -0.182      962   
   865.318   898.392   -4.620   0.266       -0.104      0.200       963   
   934.603   899.102   -5.419   0.232       -0.772      0.316       964   
   1283.289  900.928   -5.740   0.262       -0.520      0.370       965   
   1195.488  902.908   -4.955   0.288       0.135       -0.166      966   
   956.084   902.626   -5.343   0.524       0.072       -0.057      967   
   996.579   903.165   -5.663   0.295       -0.542      0.049       968   
   1379.857  903.408   -5.796   0.277       -0.217      -0.076      969   
   1585.223  903.278   -5.904   0.286       -0.188      0.294       970   
   858.254   903.434   -4.832   0.393       0.163       0.061       971   
   1268.060  906.799   -4.897   0.438       0.211       0.869       972   
   237.358   908.268   -5.751   0.288       -0.067      0.544       973   
   1181.761  907.521   -5.518   0.362       -0.441      0.139       974   
   874.481   908.603   -5.352   0.500       -0.421      0.014       975   
   1422.319  911.259   -4.977   0.310       0.019       -0.405      976   
   1750.175  907.844   -5.970   0.253       -0.239      0.714       977   
   1068.110  910.166   -5.614   0.225       -0.325      -0.044      978   
   1731.588  909.802   -5.617   0.268       0.486       -0.295      979   
   1192.636  907.894   -4.921   0.345       -0.094      -0.160      980   
   637.705   919.225   -5.851   0.282       -0.169      0.369       981   
   1256.625  917.302   -5.257   0.463       -0.583      -0.142      982   
   810.799   914.408   -5.543   0.279       -0.417      0.571       983   
   1160.592  915.423   -4.436   0.513       -0.540      -0.640      984   
   1368.579  915.527   -5.223   0.449       -0.363      0.591       985   
   721.824   919.227   -5.397   0.352       -0.958      -0.150      986   
   1419.119  916.712   -4.860   0.309       -0.133      -0.412      987   
   831.037   920.896   -5.528   0.381       0.318       0.020       988   
   555.417   920.359   -5.266   0.206       0.281       -0.441      989   
   902.989   922.177   -5.729   0.247       -0.292      -0.128      990   
   987.908   922.182   -5.200   0.252       -0.004      0.221       991   
   1206.860  921.976   -5.727   0.232       -0.319      -0.051      992   
   1873.822  922.365   -5.542   0.271       -0.036      0.835       993   
   919.742   926.298   -5.239   0.209       -0.116      0.043       994   
   1163.757  926.305   -5.749   0.283       -0.302      -0.023      995   
   1258.601  932.719   -4.778   0.548       0.535       0.883       996   
   1515.471  932.332   -5.891   0.259       -0.204      -0.431      997   
   662.489   930.150   -4.824   0.285       0.157       -0.307      998   
   1244.364  926.953   -5.396   0.246       -0.497      0.423       999   
   1839.037  928.527   -5.551   0.290       -0.406      -0.077      1000  
   1176.438  928.357   -5.769   0.283       -0.311      -0.128      1001  
   1191.818  928.942   -5.461   0.209       -0.491      0.191       1002  
   1370.936  929.518   -5.384   0.218       -0.199      0.077       1003  
   681.972   934.945   -5.647   0.328       0.056       0.178       1004  
   692.094   930.623   -5.602   0.240       0.148       0.141       1005  
   1043.105  932.081   -5.691   0.305       -0.310      -0.113      1006  
   840.086   931.747   -5.688   0.327       -0.338      0.488       1007  
   929.327   932.817   -5.517   0.254       -0.111      -0.117      1008  
   1332.579  932.934   -5.774   0.332       -0.168      -0.378      1009  
   960.161   937.095   -5.671   0.332       -0.257      -0.123      1010  
   1229.532  935.420   -5.561   0.238       -0.352      0.212       1011  
   1296.404  935.834   -5.458   0.315       -0.785      0.024       1012  
   1392.185  935.390   -5.274   0.268       -0.474      0.442       1013  
   659.909   935.684   -4.783   0.325       0.171       -0.602      1014  
   1098.271  940.595   -5.478   0.373       -0.366      0.362       1015  
   1071.026  939.690   -5.675   0.337       -0.463      -0.226      1016  
   1545.346  939.710   -5.658   0.202       -0.336      0.019       1017  
   873.328   941.097   -4.399   0.385       -0.085      -0.454      1018  
   1257.618  939.359   -4.980   0.240       -0.078      -0.136      1019  
   1290.977  941.968   -5.468   0.237       -0.838      -0.068      1020  
   1390.569  941.135   -5.296   0.256       -0.602      0.050       1021  
   1644.409  940.968   -5.770   0.294       -0.359      0.016       1022  
   1438.767  944.552   -5.819   0.273       -0.015      -0.230      1023  
   1005.198  945.716   -4.971   0.315       0.015       -0.254      1024  
   1038.067  950.161   -5.402   0.517       -0.140      -0.086      1025  
   1140.208  944.973   -5.314   0.239       -0.200      -0.107      1026  
   692.581   944.533   -5.472   0.479       -0.052      0.121       1027  
   770.768   945.630   -5.229   0.493       -0.315      -0.868      1028  
   859.655   946.264   -5.396   0.482       -0.254      0.339       1029  
   565.860   944.864   -5.870   0.272       -0.123      0.805       1030  
   893.445   949.532   -5.071   0.273       -0.158      -0.446      1031  
   942.475   948.152   -5.167   0.534       0.407       -0.590      1032  
   344.724   948.919   -5.339   0.328       -0.324      0.597       1033  
   826.946   950.422   -5.342   0.258       -0.492      0.141       1034  
   1003.490  949.257   -5.107   0.299       -0.136      0.248       1035  
   1748.822  954.336   -5.816   0.336       -0.053      -0.260      1036  
   1262.248  956.584   -5.129   0.267       0.463       0.173       1037  
   724.649   955.763   -5.667   0.231       -0.398      -0.039      1038  
   1280.968  956.648   -4.868   0.529       -0.138      -0.081      1039  
   1351.353  958.346   -5.598   0.322       -0.170      -0.097      1040  
   591.569   950.630   -5.757   0.336       -0.156      0.716       1041  
   795.198   953.472   -5.718   0.352       -0.018      0.855       1042  
   1358.178  961.505   -5.129   0.311       0.502       0.380       1043  
   1018.892  961.627   -5.515   0.269       -0.814      -0.054      1044  
   1482.685  962.497   -5.539   0.212       -0.429      0.136       1045  
   815.084   967.014   -5.550   0.337       0.395       0.006       1046  
   1052.666  967.124   -5.667   0.395       -0.122      0.545       1047  
   1170.003  966.962   -5.508   0.221       -0.222      0.136       1048  
   321.871   970.345   -5.424   0.253       -0.096      0.193       1049  
   1008.155  968.807   -5.638   0.383       -0.110      -0.290      1050  
   420.949   971.741   -4.823   0.215       0.104       -0.678      1051  
   751.793   970.916   -4.966   0.271       -0.143      0.493       1052  
   1156.818  971.305   -4.966   0.532       -0.063      0.027       1053  
   556.919   970.048   -5.761   0.256       -0.276      0.163       1054  
   1255.748  973.798   -5.133   0.267       -0.379      0.003       1055  
   1698.001  971.088   -5.856   0.244       -0.271      0.092       1056  
   822.656   972.105   -5.574   0.379       -0.180      -0.130      1057  
   942.242   976.755   -5.374   0.412       -0.835      -0.160      1058  
   1356.366  972.696   -4.853   0.302       0.605       0.362       1059  
   469.464   976.077   -5.120   0.225       -0.876      0.222       1060  
   835.999   975.604   -5.600   0.288       -0.546      0.120       1061  
   1751.004  976.101   -5.585   0.290       -0.157      -0.784      1062  
   1080.076  976.666   -5.467   0.211       -0.215      0.254       1063  
   1319.953  977.542   -5.448   0.434       -0.069      0.303       1064  
   1279.043  978.605   -5.686   0.292       -0.158      -0.133      1065  
   677.635   980.624   -4.993   0.273       0.041       -0.359      1066  
   1063.237  975.810   -5.462   0.491       -0.403      0.608       1067  
   418.087   977.742   -4.918   0.302       -0.253      -0.583      1068  
   1225.670  980.464   -5.719   0.228       -0.376      -0.128      1069  
   1148.348  982.068   -5.490   0.271       -0.821      -0.667      1070  
   1090.468  982.899   -5.164   0.581       0.037       0.984       1071  
   261.362   985.717   -5.126   0.288       -0.448      -0.046      1072  
   674.950   986.013   -4.885   0.278       -0.102      -0.379      1073  
   310.517   988.883   -5.405   0.290       -0.972      -0.585      1074  
   829.148   987.666   -5.106   0.271       -0.269      -0.220      1075  
   1244.869  982.933   -5.731   0.331       0.054       -0.258      1076  
   232.879   990.815   -5.788   0.217       -0.327      0.033       1077  
   777.051   991.318   -5.189   0.525       -0.188      -0.523      1078  
   918.613   993.508   -5.131   0.273       -0.899      0.263       1079  
   1509.959  992.034   -5.280   0.216       -0.178      0.034       1080  
   1055.112  995.244   -5.037   0.248       -0.196      -0.077      1081  
   1745.480  991.653   -5.995   0.243       -0.372      -0.140      1082  
   885.622   995.647   -5.414   0.285       -0.935      -0.391      1083  
   203.734   996.541   -5.002   0.227       -0.393      -0.222      1084  
   1357.841  998.594   -5.114   0.339       -0.274      0.123       1085  
   1003.925  996.940   -5.008   0.628       -0.137      -0.434      1086  
   916.546   996.839   -5.039   0.268       -0.090      0.248       1087  
   1376.238  1000.174  -5.122   0.266       -0.369      -0.132      1088  
   772.516   1002.383  -5.651   0.255       -0.230      -0.031      1089  
   789.973   1004.807  -5.639   0.251       -0.521      -0.337      1090  
   1133.825  1005.275  -5.686   0.374       -0.229      0.459       1091  
   1355.541  1003.865  -5.082   0.268       -0.244      -0.007      1092  
   1266.347  1007.466  -5.493   0.406       -0.049      -0.217      1093  
   637.246   1008.253  -5.293   0.202       -0.047      -0.001      1094  
   1091.115  1011.438  -5.630   0.386       -0.313      -0.196      1095  
   1007.196  1008.943  -5.183   0.238       -0.535      0.057       1096  
   921.669   1014.979  -5.306   0.483       0.059       0.183       1097  
   1214.127  1010.814  -4.964   0.555       -0.541      -0.434      1098  
   883.029   1011.576  -5.510   0.443       -0.292      -0.141      1099  
   955.583   1013.463  -5.015   0.278       0.049       -0.524      1100  
   505.897   1013.135  -5.750   0.296       0.046       0.036       1101  
   1062.895  1014.277  -5.086   0.305       -0.103      -0.546      1102  
   1551.695  1013.007  -5.576   0.213       -0.309      0.139       1103  
   256.086   1014.283  -5.736   0.257       -0.279      0.031       1104  
   1292.450  1013.997  -5.805   0.278       -0.591      0.008       1105  
   585.577   1016.421  -4.846   0.241       0.262       -0.770      1106  
   1018.382  1015.134  -4.729   0.555       -0.081      0.187       1107  
   1113.973  1016.544  -5.766   0.257       -0.203      0.048       1108  
   1161.515  1018.592  -5.353   0.458       0.436       -0.350      1109  
   931.900   1021.123  -5.045   0.352       -0.319      0.116       1110  
   1075.672  1017.409  -5.312   0.343       0.830       -0.231      1111  
   1201.693  1018.614  -4.709   0.727       -0.555      0.419       1112  
   530.217   1020.611  -5.868   0.214       -0.263      0.347       1113  
   952.638   1018.744  -4.875   0.246       0.212       -0.118      1114  
   731.046   1023.070  -5.681   0.254       -0.428      0.127       1115  
   1055.610  1023.234  -5.313   0.224       -0.566      0.173       1116  
   1241.578  1023.439  -5.756   0.246       -0.176      -0.238      1117  
   582.096   1023.029  -4.839   0.291       0.518       -0.171      1118  
   668.163   1022.548  -5.832   0.247       -0.288      -0.021      1119  
   709.820   1026.211  -5.389   0.455       0.100       -0.266      1120  
   1453.699  1025.634  -5.868   0.214       -0.215      0.166       1121  
   1330.824  1027.194  -5.795   0.255       -0.258      0.083       1122  
   1403.032  1026.870  -5.769   0.247       -0.253      0.063       1123  
   1196.878  1027.878  -5.454   0.276       0.135       0.719       1124  
   646.456   1031.469  -5.637   0.218       -0.441      -0.047      1125  
   1526.203  1032.247  -5.887   0.218       -0.168      0.274       1126  
   1136.076  1033.037  -5.559   0.413       -0.128      -0.044      1127  
   1346.960  1035.139  -5.117   0.453       -0.333      -0.578      1128  
   724.978   1036.683  -5.024   0.535       0.226       0.336       1129  
   950.534   1037.817  -5.203   0.518       0.021       0.058       1130  
   1205.123  1035.463  -4.709   0.793       0.965       -0.027      1131  
   1398.421  1041.317  -5.175   0.265       -0.258      -0.052      1132  
   2027.838  1041.526  -5.243   0.573       -0.260      0.583       1133  
   1084.276  1042.554  -5.670   0.360       -0.264      -0.235      1134  
   974.185   1044.728  -5.033   0.230       0.211       -0.072      1135  
   1625.221  1045.138  -5.818   0.258       -0.197      0.051       1136  
   1639.585  1043.386  -5.653   0.208       -0.410      -0.178      1137  
   1161.071  1042.348  -5.597   0.296       -0.595      0.021       1138  
   1206.058  1045.194  -5.690   0.239       0.096       0.021       1139  
   1223.130  1045.280  -5.788   0.228       -0.365      -0.010      1140  
   1378.524  1045.954  -5.086   0.550       -0.128      0.862       1141  
   1270.614  1047.426  -5.453   0.319       0.410       0.451       1142  
   1678.215  1048.563  -5.892   0.203       -0.309      0.529       1143  
   757.148   1053.688  -5.545   0.396       -0.418      0.016       1144  
   1021.448  1050.199  -5.715   0.227       -0.328      0.121       1145  
   1037.192  1050.355  -5.430   0.294       0.013       0.788       1146  
   974.190   1048.740  -5.071   0.284       -0.340      0.207       1147  
   1586.472  1050.601  -5.788   0.241       -0.437      -0.302      1148  
   1394.928  1052.348  -5.363   0.259       -0.342      0.380       1149  
   322.831   1056.657  -5.880   0.260       -0.226      0.044       1150  
   803.074   1056.805  -5.566   0.400       -0.262      0.284       1151  
   1258.687  1056.195  -5.501   0.458       0.100       0.633       1152  
   1283.693  1057.552  -5.219   0.551       0.055       0.246       1153  
   1341.290  1062.251  -5.726   0.344       -0.232      0.478       1154  
   1036.622  1057.627  -5.398   0.338       -0.125      0.696       1155  
   994.199   1059.786  -5.523   0.237       -0.392      0.038       1156  
   889.049   1061.308  -5.588   0.238       -0.349      0.061       1157  
   913.641   1061.693  -5.295   0.225       -0.733      0.030       1158  
   935.002   1063.505  -5.356   0.446       -0.232      -0.387      1159  
   1738.141  1066.031  -4.968   0.336       -0.300      -0.796      1160  
   1363.156  1067.239  -5.634   0.324       0.069       0.549       1161  
   608.144   1068.292  -5.778   0.321       0.058       -0.203      1162  
   1280.685  1071.032  -5.259   0.369       0.835       -0.016      1163  
   1155.259  1070.583  -5.685   0.243       -0.362      0.052       1164  
   840.047   1070.980  -5.325   0.400       0.926       0.330       1165  
   1783.950  1072.154  -5.562   0.352       0.077       0.043       1166  
   723.707   1075.615  -5.291   0.229       -0.486      -0.008      1167  
   1048.419  1073.863  -5.692   0.321       -0.131      0.186       1168  
   1063.263  1077.099  -5.104   0.219       -0.020      0.119       1169  
   1283.404  1075.399  -5.329   0.244       0.419       0.655       1170  
   993.514   1078.503  -4.895   0.668       -0.090      -0.348      1171  
   816.929   1079.511  -4.994   0.508       -0.234      -0.346      1172  
   1299.350  1079.463  -4.888   0.347       0.210       -0.147      1173  
   829.432   1080.504  -5.304   0.225       -0.451      0.061       1174  
   948.753   1082.119  -5.274   0.532       -0.756      -0.474      1175  
   518.757   1082.346  -5.350   0.204       -0.321      0.062       1176  
   713.822   1083.282  -5.430   0.241       -0.770      0.050       1177  
   1611.179  1082.985  -5.667   0.206       -0.349      0.063       1178  
   493.856   1085.460  -5.752   0.303       -0.126      -0.272      1179  
   1067.678  1084.098  -5.095   0.348       0.338       -0.638      1180  
   909.665   1086.658  -5.206   0.416       -0.253      -0.690      1181  
   874.004   1089.247  -4.959   0.334       0.042       -0.670      1182  
   989.948   1087.832  -5.705   0.257       -0.490      0.033       1183  
   1461.985  1087.362  -5.869   0.236       -0.193      0.424       1184  
   2017.903  1088.590  -6.014   0.204       -0.186      0.213       1185  
   1126.117  1093.048  -5.557   0.220       -0.540      0.026       1186  
   1286.827  1093.441  -5.351   0.219       -0.334      0.150       1187  
   1662.434  1093.507  -5.971   0.214       -0.203      0.110       1188  
   1073.175  1097.569  -4.962   0.265       -0.029      -0.067      1189  
   872.352   1094.573  -4.823   0.323       -0.006      -0.487      1190  
   1223.471  1097.256  -5.477   0.225       -0.653      -0.079      1191  
   1087.363  1103.731  -5.254   0.573       -0.200      -0.868      1192  
   1190.286  1105.603  -5.168   0.268       -0.256      0.252       1193  
   1276.617  1105.831  -5.455   0.209       -0.363      -0.049      1194  
   1519.549  1106.345  -5.822   0.231       -0.117      0.064       1195  
   1023.376  1107.905  -4.928   0.429       -0.477      0.107       1196  
   1179.257  1108.998  -5.554   0.305       -0.216      -0.417      1197  
   639.337   1111.730  -5.004   0.312       -0.609      0.227       1198  
   971.467   1114.456  -5.772   0.266       -0.187      0.369       1199  
   336.333   1108.036  -4.859   0.459       -0.408      0.035       1200  
   1442.491  1112.114  -5.734   0.303       -0.309      0.096       1201  
   1507.024  1113.498  -5.162   0.263       -0.286      0.180       1202  
   1770.332  1113.655  -5.712   0.354       -0.344      0.619       1203  
   1677.353  1115.180  -5.761   0.271       -0.205      -0.087      1204  
   609.708   1115.658  -5.501   0.200       -0.393      -0.533      1205  
   722.324   1115.758  -5.645   0.207       -0.460      -0.081      1206  
   245.386   1117.506  -5.859   0.210       -0.099      0.065       1207  
   1088.792  1117.031  -5.128   0.243       -0.261      0.578       1208  
   636.359   1117.534  -4.947   0.327       -0.279      -0.419      1209  
   1071.972  1117.722  -5.067   0.521       0.043       -0.769      1210  
   832.447   1121.489  -5.470   0.444       -0.178      0.283       1211  
   1119.798  1121.881  -5.525   0.214       -0.664      -0.046      1212  
   664.414   1124.347  -5.584   0.210       -0.356      0.067       1213  
   1302.212  1124.425  -5.571   0.231       -0.088      -0.010      1214  
   694.643   1126.637  -5.287   0.231       -0.622      -0.025      1215  
   1468.407  1127.597  -5.808   0.229       -0.324      0.014       1216  
   1344.502  1126.802  -5.287   0.236       -0.480      0.252       1217  
   1097.338  1128.403  -5.605   0.313       0.289       -0.032      1218  
   1150.654  1130.124  -5.406   0.343       -0.605      0.128       1219  
   1223.848  1131.120  -5.712   0.320       -0.096      -0.001      1220  
   1033.150  1131.173  -5.723   0.254       -0.289      -0.010      1221  
   628.246   1135.429  -5.104   0.267       -0.539      0.070       1222  
   830.334   1134.497  -5.643   0.242       -0.238      -0.102      1223  
   1377.847  1135.451  -5.016   0.242       0.266       0.482       1224  
   1451.275  1135.489  -5.101   0.223       -0.319      0.190       1225  
   644.186   1136.380  -5.547   0.209       -0.498      -0.106      1226  
   569.089   1132.691  -5.911   0.246       -0.063      0.404       1227  
   839.801   1136.691  -5.582   0.265       0.119       -0.343      1228  
   684.259   1139.340  -4.501   0.585       -0.366      0.636       1229  
   805.959   1139.412  -5.182   0.461       -0.228      -0.181      1230  
   966.481   1139.444  -5.201   0.250       -0.531      -0.026      1231  
   1423.499  1139.260  -5.856   0.233       -0.316      -0.137      1232  
   1130.301  1142.050  -5.146   0.267       -0.242      -0.062      1233  
   1604.740  1141.288  -5.562   0.397       -0.117      0.456       1234  
   1373.362  1139.823  -4.939   0.308       -0.379      -0.306      1235  
   1172.483  1143.138  -5.503   0.451       -0.191      0.225       1236  
   1657.151  1144.783  -5.961   0.214       -0.327      0.351       1237  
   581.048   1144.939  -5.890   0.277       -0.217      0.288       1238  
   721.680   1146.101  -5.058   0.238       -0.112      -0.254      1239  
   1348.913  1147.770  -5.820   0.258       -0.279      -0.013      1240  
   932.306   1147.690  -5.686   0.360       -0.116      0.701       1241  
   1863.678  1149.776  -5.975   0.286       -0.078      0.932       1242  
   1299.201  1149.384  -5.696   0.247       -0.437      -0.129      1243  
   946.326   1148.872  -5.144   0.236       -0.468      -0.085      1244  
   266.792   1145.804  -5.956   0.232       -0.270      -0.109      1245  
   828.382   1150.880  -5.611   0.390       -0.417      0.027       1246  
   892.628   1153.299  -5.191   0.236       -0.850      -0.107      1247  
   969.872   1153.443  -5.657   0.246       -0.242      -0.081      1248  
   1423.456  1153.017  -5.630   0.214       -0.416      0.049       1249  
   720.503   1152.548  -5.013   0.278       -0.317      -0.291      1250  
   158.865   1155.416  -5.847   0.306       -0.006      -0.244      1251  
   456.835   1156.283  -4.902   0.272       0.302       -0.550      1252  
   1375.412  1155.581  -5.606   0.403       -0.262      -0.671      1253  
   1194.868  1157.572  -5.619   0.332       -0.542      0.444       1254  
   1588.798  1159.974  -5.827   0.217       -0.298      0.281       1255  
   1183.974  1160.921  -5.565   0.221       0.038       -0.038      1256  
   1014.167  1162.554  -5.721   0.348       0.064       -0.504      1257  
   817.492   1167.935  -5.885   0.264       -0.303      0.335       1258  
   1149.556  1164.866  -5.590   0.416       -0.126      0.103       1259  
   452.949   1163.895  -4.884   0.318       0.071       -0.596      1260  
   1287.807  1165.594  -5.661   0.230       -0.700      0.144       1261  
   426.034   1169.363  -5.479   0.200       -0.393      0.077       1262  
   1342.116  1169.002  -5.848   0.249       -0.387      0.393       1263  
   903.409   1170.071  -5.746   0.248       -0.226      0.040       1264  
   1120.356  1171.550  -5.225   0.263       0.066       -0.057      1265  
   1075.826  1175.451  -4.903   0.233       -0.081      -0.867      1266  
   1306.452  1175.104  -5.215   0.417       -0.150      -0.387      1267  
   1465.030  1173.275  -5.757   0.338       -0.114      -0.803      1268  
   990.058   1178.360  -5.610   0.355       -0.189      -0.731      1269  
   1180.950  1178.218  -5.576   0.226       -0.387      0.041       1270  
   1254.928  1183.460  -5.621   0.323       -0.450      -0.151      1271  
   1894.433  1179.353  -5.756   0.285       -0.063      0.553       1272  
   1053.277  1181.898  -4.428   0.498       -0.005      0.738       1273  
   3.391     1184.399  -4.947   0.257       -0.494      -0.037      1274  
   930.991   1181.957  -5.645   0.231       -0.521      -0.076      1275  
   1073.654  1180.488  -4.900   0.373       -0.089      -0.024      1276  
   1363.391  1184.364  -5.302   0.381       -0.308      0.885       1277  
   854.344   1185.464  -5.514   0.348       -0.073      0.334       1278  
   751.653   1186.940  -5.240   0.243       -0.353      0.015       1279  
   918.998   1184.721  -5.332   0.439       -0.644      0.035       1280  
   414.918   1188.791  -5.446   0.207       -0.280      0.066       1281  
   1183.323  1188.778  -5.102   0.659       0.178       0.266       1282  
   717.193   1190.399  -5.634   0.335       0.029       0.540       1283  
   892.165   1190.664  -5.825   0.305       -0.069      0.143       1284  
   1067.425  1185.517  -5.078   0.344       0.802       0.663       1285  
   349.733   1193.049  -5.927   0.249       -0.173      0.479       1286  
   1374.335  1192.356  -5.771   0.234       -0.331      -0.020      1287  
   1154.638  1193.255  -5.751   0.277       -0.234      -0.117      1288  
   1287.441  1194.567  -5.708   0.340       -0.349      0.162       1289  
   608.477   1194.489  -5.883   0.257       -0.201      0.131       1290  
   1478.602  1193.983  -5.084   0.284       -0.125      -0.309      1291  
   1303.739  1194.946  -5.443   0.268       -0.900      -0.513      1292  
   1924.014  1193.531  -6.057   0.266       -0.195      0.222       1293  
   1751.873  1200.789  -5.882   0.300       -0.061      0.223       1294  
   299.345   1194.248  -5.955   0.234       -0.120      0.431       1295  
   1433.798  1196.311  -5.481   0.303       -0.686      -0.564      1296  
   656.900   1198.640  -5.803   0.229       -0.330      0.242       1297  
   813.498   1197.418  -5.234   0.326       -0.844      -0.195      1298  
   1357.797  1203.917  -5.285   0.522       -0.379      -0.264      1299  
   712.204   1200.608  -5.913   0.217       -0.264      0.245       1300  
   1442.229  1208.055  -5.369   0.223       -0.334      0.042       1301  
   1058.558  1209.596  -5.632   0.350       -0.157      0.142       1302  
   1254.992  1212.900  -5.125   0.248       -0.241      -0.164      1303  
   457.819   1212.519  -5.694   0.223       -0.578      -0.160      1304  
   1169.188  1214.612  -5.525   0.402       -0.348      -0.205      1305  
   1367.585  1215.905  -5.117   0.272       0.192       -0.197      1306  
   1745.184  1213.449  -5.758   0.257       -0.341      -0.020      1307  
   1081.548  1218.294  -5.841   0.279       -0.130      -0.024      1308  
   921.241   1215.689  -5.587   0.213       -0.467      -0.080      1309  
   1585.647  1215.083  -5.795   0.208       -0.315      -0.012      1310  
   1545.843  1219.453  -5.757   0.242       -0.193      -0.178      1311  
   451.669   1218.990  -5.607   0.282       -0.519      0.183       1312  
   1562.843  1221.540  -5.589   0.370       -0.071      0.511       1313  
   239.004   1219.097  -5.879   0.223       -0.140      0.531       1314  
   849.276   1224.385  -5.636   0.332       0.203       -0.311      1315  
   1118.448  1227.396  -5.707   0.290       -0.386      -0.134      1316  
   1187.554  1226.647  -5.552   0.212       -0.301      0.047       1317  
   606.791   1231.228  -4.812   0.235       0.118       -0.850      1318  
   1713.939  1226.932  -5.900   0.294       -0.335      0.971       1319  
   1698.748  1235.525  -5.776   0.313       0.037       -0.039      1320  
   1445.905  1237.644  -5.802   0.252       -0.275      0.473       1321  
   603.875   1237.701  -4.893   0.320       -0.004      -0.514      1322  
   696.128   1242.633  -5.779   0.253       -0.386      0.132       1323  
   852.673   1239.837  -5.825   0.233       -0.271      -0.049      1324  
   1263.897  1243.122  -4.907   0.246       -0.009      -0.411      1325  
   1652.713  1242.047  -5.778   0.267       -0.282      -0.484      1326  
   648.256   1240.107  -5.871   0.238       -0.417      0.343       1327  
   1045.312  1247.208  -5.796   0.290       -0.224      0.340       1328  
   790.216   1246.169  -5.787   0.269       -0.137      0.238       1329  
   1164.292  1257.203  -5.851   0.246       -0.048      0.629       1330  
   1260.452  1250.149  -4.853   0.390       -0.276      -0.768      1331  
   1507.253  1258.371  -5.878   0.256       -0.110      0.068       1332  
   218.095   1254.670  -5.927   0.253       -0.140      0.819       1333  
   344.978   1253.956  -5.298   0.217       -0.366      0.024       1334  
   368.972   1254.397  -5.900   0.263       0.016       -0.291      1335  
   409.436   1258.229  -5.805   0.299       -0.248      -0.033      1336  
   1320.759  1256.948  -5.129   0.292       -0.277      0.310       1337  
   1008.121  1258.103  -5.866   0.241       -0.304      0.457       1338  
   1306.209  1255.462  -5.956   0.243       -0.018      -0.063      1339  
   799.325   1255.173  -5.732   0.283       -0.064      -0.038      1340  
   1141.099  1257.681  -5.804   0.208       -0.315      0.099       1341  
   49.159    1259.945  -5.626   0.201       -0.405      -0.013      1342  
   1549.050  1259.182  -5.938   0.269       -0.138      0.799       1343  
   1317.161  1263.416  -4.959   0.248       -0.260      0.068       1344  
   1040.616  1265.445  -5.207   0.239       0.410       -0.426      1345  
   1214.866  1265.293  -5.736   0.326       -0.057      0.695       1346  
   984.319   1266.550  -5.853   0.285       -0.007      0.142       1347  
   1250.131  1266.698  -5.711   0.330       -0.509      0.106       1348  
   504.328   1267.825  -5.768   0.208       -0.373      0.350       1349  
   2029.829  1267.795  -5.897   0.217       -0.381      0.188       1350  
   474.471   1270.787  -5.949   0.221       -0.299      0.171       1351  
   677.846   1268.836  -5.564   0.267       -0.757      -0.270      1352  
   1441.406  1268.808  -5.094   0.201       -0.206      -0.105      1353  
   886.355   1271.877  -5.742   0.255       -0.367      -0.164      1354  
   907.629   1272.624  -4.996   0.280       -0.674      0.001       1355  
   1424.220  1270.189  -5.634   0.245       0.154       -0.008      1356  
   1640.387  1271.408  -5.660   0.282       -0.114      0.692       1357  
   404.342   1273.867  -5.793   0.225       -0.239      0.272       1358  
   1558.613  1276.620  -4.990   0.294       -0.054      -0.852      1359  
   1513.277  1277.182  -5.750   0.306       -0.171      -0.081      1360  
   1204.641  1279.366  -5.823   0.236       -0.361      -0.364      1361  
   905.754   1277.271  -5.115   0.286       -0.287      0.158       1362  
   1087.264  1280.158  -5.398   0.390       0.089       0.596       1363  
   1820.799  1279.243  -5.922   0.215       -0.269      0.261       1364  
   1279.509  1283.321  -5.521   0.434       -0.124      0.462       1365  
   1245.599  1287.025  -5.022   0.291       -0.152      -0.257      1366  
   1555.918  1283.568  -4.984   0.297       -0.323      -0.497      1367  
   1590.056  1286.554  -5.856   0.204       -0.273      0.198       1368  
   711.066   1288.587  -5.317   0.216       -0.323      0.155       1369  
   1387.336  1291.235  -5.815   0.268       -0.227      0.338       1370  
   1515.074  1292.357  -5.721   0.274       -0.117      0.085       1371  
   755.287   1295.579  -5.834   0.229       -0.049      0.176       1372  
   1242.983  1291.985  -4.976   0.316       -0.372      -0.420      1373  
   908.865   1298.833  -5.734   0.283       -0.155      0.033       1374  
   401.822   1294.958  -5.889   0.208       -0.291      0.339       1375  
   1311.923  1303.088  -5.849   0.281       -0.178      -0.736      1376  
   57.424    1303.187  -5.865   0.279       -0.216      0.495       1377  
   650.832   1298.480  -5.341   0.333       0.003       -0.926      1378  
   1121.630  1298.103  -5.752   0.284       -0.246      -0.183      1379  
   1800.216  1297.414  -5.898   0.258       -0.215      0.225       1380  
   1163.992  1301.203  -5.158   0.217       -0.311      -0.235      1381  
   890.262   1301.431  -5.759   0.287       -0.271      0.027       1382  
   1057.214  1304.182  -5.755   0.220       -0.267      0.099       1383  
   1177.117  1304.353  -5.751   0.256       -0.396      -0.036      1384  
   1604.481  1306.891  -5.918   0.230       -0.073      -0.203      1385  
   1350.114  1307.155  -5.696   0.276       -0.027      0.958       1386  
   1123.482  1304.836  -5.545   0.389       0.099       -0.369      1387  
   207.602   1309.535  -5.954   0.230       -0.129      0.333       1388  
   1543.400  1309.523  -5.381   0.212       -0.649      -0.533      1389  
   920.183   1303.701  -5.856   0.266       -0.150      0.456       1390  
   794.541   1315.456  -5.591   0.411       -0.183      -0.763      1391  
   647.365   1315.712  -5.335   0.206       -0.329      -0.001      1392  
   1612.038  1317.054  -5.436   0.380       -0.687      0.201       1393  
   1835.218  1317.445  -4.942   0.231       0.126       -0.472      1394  
   1871.551  1318.301  -5.914   0.202       -0.207      0.409       1395  
   668.619   1316.685  -5.408   0.269       0.532       0.132       1396  
   1447.925  1317.451  -5.189   0.228       0.339       -0.016      1397  
   1455.643  1326.078  -5.920   0.262       -0.186      0.162       1398  
   982.901   1324.005  -5.843   0.228       -0.225      0.282       1399  
   1512.541  1322.372  -5.796   0.202       -0.327      -0.008      1400  
   1373.409  1325.098  -5.441   0.517       -0.344      -0.296      1401  
   1385.515  1326.081  -5.291   0.419       -0.457      0.849       1402  
   1489.420  1326.178  -5.803   0.291       -0.056      0.591       1403  
   1829.950  1324.709  -4.966   0.323       -0.264      -0.594      1404  
   269.185   1333.245  -5.693   0.264       -0.306      -0.469      1405  
   1258.788  1328.435  -5.644   0.388       -0.362      0.565       1406  
   813.374   1328.810  -5.630   0.214       -0.202      -0.318      1407  
   639.807   1334.750  -5.163   0.237       -0.357      0.441       1408  
   1325.722  1333.510  -5.541   0.440       -0.380      -0.778      1409  
   1433.121  1333.562  -5.672   0.395       -0.238      0.423       1410  
   1674.954  1335.690  -5.824   0.229       -0.452      0.051       1411  
   1087.569  1337.690  -5.744   0.237       -0.525      -0.092      1412  
   1979.224  1334.826  -5.585   0.223       -0.286      0.144       1413  
   907.343   1339.120  -4.929   0.230       -0.096      -0.879      1414  
   1371.454  1341.284  -5.785   0.229       -0.389      0.061       1415  
   266.083   1340.393  -5.828   0.218       -0.230      0.083       1416  
   1586.538  1345.036  -6.028   0.207       -0.287      -0.773      1417  
   1067.146  1345.972  -5.549   0.215       -0.615      -0.227      1418  
   1788.598  1347.899  -5.138   0.228       -0.191      -0.031      1419  
   902.958   1348.914  -5.145   0.295       -0.551      0.132       1420  
   493.182   1351.595  -5.580   0.209       -0.481      -0.028      1421  
   1084.759  1353.383  -5.235   0.402       0.299       -0.540      1422  
   578.632   1352.982  -5.140   0.255       -0.214      -0.281      1423  
   1279.441  1355.402  -5.751   0.211       -0.354      0.135       1424  
   1353.776  1354.607  -5.623   0.213       -0.495      0.021       1425  
   1089.382  1356.798  -5.192   0.253       -0.223      -0.115      1426  
   1220.568  1358.539  -5.826   0.205       -0.457      0.111       1427  
   1110.669  1363.063  -5.454   0.463       -0.271      0.497       1428  
   861.235   1362.851  -5.698   0.307       -0.269      -0.450      1429  
   1204.166  1361.313  -5.820   0.221       -0.369      0.324       1430  
   1509.406  1362.010  -5.861   0.210       -0.349      0.301       1431  
   1660.705  1361.509  -5.231   0.208       -0.235      0.084       1432  
   1008.369  1367.706  -5.781   0.243       -0.182      -0.140      1433  
   370.876   1368.474  -5.638   0.249       -0.083      0.324       1434  
   411.366   1367.802  -5.062   0.204       -0.167      -0.028      1435  
   1986.063  1366.415  -5.932   0.246       -0.147      0.005       1436  
   904.132   1365.388  -5.642   0.346       -0.094      0.382       1437  
   935.233   1370.044  -5.631   0.223       -0.349      -0.017      1438  
   1157.510  1365.810  -5.820   0.263       -0.270      0.465       1439  
   1354.997  1373.449  -5.462   0.205       -0.554      0.121       1440  
   1397.214  1373.471  -5.677   0.308       -0.070      0.406       1441  
   1088.784  1374.141  -5.831   0.224       -0.373      0.078       1442  
   1513.925  1378.563  -5.477   0.214       -0.287      0.108       1443  
   1983.972  1382.621  -5.106   0.207       -0.329      0.060       1444  
   933.845   1386.117  -4.961   0.244       -0.129      -0.819      1445  
   1822.811  1386.156  -5.964   0.229       -0.115      0.390       1446  
   1694.666  1387.149  -5.847   0.234       -0.263      0.267       1447  
   611.090   1389.504  -5.807   0.302       -0.115      0.775       1448  
   1723.945  1390.982  -5.756   0.343       -0.246      -0.068      1449  
   1143.089  1393.286  -5.719   0.322       -0.087      0.570       1450  
   1439.004  1392.816  -5.853   0.227       -0.279      0.273       1451  
   931.577   1391.935  -4.944   0.368       -0.084      -0.280      1452  
   1613.370  1399.246  -5.905   0.297       -0.189      -0.663      1453  
   1774.459  1400.704  -5.940   0.208       -0.434      0.022       1454  
   1256.255  1402.898  -5.867   0.214       -0.314      0.093       1455  
   1040.895  1405.219  -5.636   0.221       -0.339      0.227       1456  
   966.751   1407.251  -5.925   0.274       -0.103      0.812       1457  
   1525.124  1409.054  -5.851   0.201       -0.505      0.194       1458  
   896.883   1411.337  -5.780   0.217       -0.408      0.304       1459  
   1074.283  1413.238  -5.130   0.211       -0.212      -0.233      1460  
   1022.876  1415.772  -5.098   0.215       -0.220      0.004       1461  
   1052.796  1415.383  -5.883   0.221       -0.105      0.363       1462  
   329.715   1419.875  -5.841   0.221       -0.286      0.331       1463  
   1640.549  1422.205  -5.789   0.288       -0.207      0.453       1464  
   913.886   1425.673  -5.787   0.253       -0.342      0.203       1465  
   303.901   1427.955  -5.806   0.203       -0.326      0.339       1466  
   926.534   1430.115  -5.731   0.247       -0.396      0.199       1467  
   1009.480  1430.578  -5.609   0.215       -0.553      0.069       1468  
   1477.804  1431.688  -5.920   0.218       -0.364      0.798       1469  
   1704.892  1432.933  -5.914   0.203       -0.245      0.258       1470  
   871.512   1441.575  -5.798   0.215       -0.344      0.318       1471  
   1670.465  1439.132  -5.063   0.247       -0.120      -0.141      1472  
   1524.712  1448.444  -5.724   0.295       -0.156      0.880       1473  
   1625.397  1445.150  -5.782   0.217       -0.380      0.174       1474  
   1839.613  1445.251  -5.880   0.292       -0.062      0.201       1475  
   926.052   1447.673  -5.702   0.280       -0.296      0.252       1476  
   1032.307  1449.248  -5.613   0.292       -0.512      0.310       1477  
   675.702   1452.565  -5.731   0.200       -0.330      0.086       1478  
   753.589   1452.859  -4.847   0.243       0.006       -0.611      1479  
   1101.666  1455.804  -5.860   0.238       -0.302      0.499       1480  
   1060.037  1456.358  -5.634   0.268       -0.061      -0.141      1481  
   922.249   1458.040  -5.199   0.533       -0.232      -0.771      1482  
   814.129   1461.229  -5.526   0.240       -0.938      0.110       1483  
   750.353   1460.035  -4.961   0.308       -0.292      -0.565      1484  
   1000.800  1462.202  -5.228   0.212       -0.244      -0.024      1485  
   1021.845  1466.491  -4.892   0.345       -0.117      -0.618      1486  
   1473.926  1465.773  -5.458   0.241       -0.175      0.580       1487  
   365.288   1466.733  -5.721   0.221       -0.363      -0.177      1488  
   1921.894  1471.138  -5.611   0.314       -0.074      0.194       1489  
   1016.158  1468.817  -4.773   0.300       -0.325      0.940       1490  
   706.965   1470.629  -5.774   0.207       -0.346      0.054       1491  
   801.096   1473.039  -5.728   0.297       -0.352      0.333       1492  
   1348.840  1471.125  -5.717   0.228       -0.263      -0.073      1493  
   1054.015  1473.352  -5.492   0.249       -0.005      -0.149      1494  
   1617.690  1474.424  -5.879   0.209       -0.228      0.249       1495  
   368.344   1475.406  -5.716   0.283       -0.208      -0.445      1496  
   1061.670  1477.526  -5.416   0.302       0.261       -0.140      1497  
   825.985   1481.491  -5.509   0.449       -0.147      0.497       1498  
   983.589   1483.764  -5.075   0.244       -0.044      0.051       1499  
   1340.166  1485.931  -5.061   0.310       -0.003      0.039       1500  
   1559.407  1483.477  -5.597   0.201       -0.325      0.087       1501  
   1022.154  1486.752  -5.133   0.274       -0.030      -0.953      1502  
   980.873   1488.390  -5.005   0.285       0.126       0.220       1503  
   1012.974  1488.509  -4.665   0.332       0.722       -0.427      1504  
   1335.925  1490.891  -4.984   0.295       -0.395      -0.266      1505  
   1764.916  1498.999  -5.673   0.397       -0.179      -0.728      1506  
   11.916    1502.989  -5.861   0.203       -0.258      0.146       1507  
   802.189   1505.537  -5.554   0.211       -0.402      -0.014      1508  
   860.701   1506.210  -5.773   0.220       -0.337      0.231       1509  
   1329.853  1510.404  -5.713   0.226       -0.502      0.082       1510  
   1384.307  1510.845  -5.866   0.217       -0.070      0.394       1511  
   1036.695  1514.915  -5.544   0.265       -0.842      -0.096      1512  
   1700.518  1515.396  -5.771   0.279       -0.061      0.574       1513  
   1610.914  1514.924  -6.012   0.218       0.005       0.200       1514  
   1262.193  1517.558  -5.623   0.407       -0.022      0.869       1515  
   1442.745  1519.507  -6.010   0.237       -0.323      0.249       1516  
   1095.934  1521.802  -4.760   0.797       0.884       0.668       1517  
   1555.022  1523.298  -5.913   0.292       -0.079      0.961       1518  
   1671.726  1526.062  -5.913   0.235       -0.166      0.327       1519  
   864.378   1527.215  -5.878   0.282       -0.129      0.437       1520  
   1400.341  1528.504  -5.637   0.268       -0.136      -0.998      1521  
   830.883   1527.646  -5.229   0.201       -0.286      0.047       1522  
   1435.443  1530.295  -5.601   0.264       -0.028      0.706       1523  
   1014.046  1531.716  -5.362   0.215       -0.275      0.151       1524  
   1110.025  1536.270  -4.872   0.427       -0.764      0.732       1525  
   193.450   1541.611  -5.881   0.282       -0.033      -0.270      1526  
   411.687   1545.784  -5.811   0.220       -0.176      0.298       1527  
   1181.460  1543.846  -5.905   0.241       -0.273      0.533       1528  
   906.070   1549.025  -5.901   0.241       -0.164      0.738       1529  
   1376.082  1549.465  -5.830   0.289       -0.269      0.459       1530  
   1805.841  1568.151  -5.963   0.227       -0.146      0.320       1531  
   1938.422  1565.375  -5.732   0.295       -0.138      -0.240      1532  
   994.014   1567.341  -5.757   0.226       -0.248      0.394       1533  
   913.049   1580.841  -5.620   0.389       -0.288      -0.487      1534  
   1516.808  1580.269  -6.019   0.246       -0.207      0.707       1535  
   1493.086  1586.316  -5.676   0.208       -0.382      0.020       1536  
   1479.040  1593.623  -6.005   0.238       -0.177      0.175       1537  
   732.044   1593.837  -5.236   0.203       -0.377      0.130       1538  
   914.008   1599.852  -4.980   0.449       -0.740      -0.887      1539  
   1994.168  1597.712  -5.985   0.268       -0.132      0.311       1540  
   1094.297  1597.488  -5.713   0.209       -0.339      0.071       1541  
   1625.031  1600.692  -5.183   0.520       -0.885      -0.100      1542  
   1045.570  1601.156  -5.709   0.338       -0.087      0.074       1543  
   515.653   1602.883  -5.561   0.205       -0.417      0.089       1544  
   1033.231  1607.920  -5.799   0.233       -0.311      -0.080      1545  
   1326.751  1608.155  -5.321   0.203       -0.337      0.228       1546  
   1190.818  1610.555  -5.798   0.321       -0.110      0.856       1547  
   1242.266  1614.134  -5.857   0.288       -0.098      0.417       1548  
   1078.529  1616.089  -5.778   0.202       -0.454      0.119       1549  
   1611.816  1621.006  -5.821   0.229       -0.266      -0.036      1550  
   987.826   1622.471  -5.939   0.272       -0.177      0.744       1551  
   1547.010  1627.760  -6.007   0.244       -0.191      0.745       1552  
   959.228   1621.811  -5.940   0.242       -0.136      0.568       1553  
   1265.977  1632.433  -5.806   0.317       0.146       0.257       1554  
   1053.120  1634.212  -5.859   0.216       -0.233      0.149       1555  
   674.230   1636.069  -5.583   0.216       -0.289      0.137       1556  
   2019.431  1635.646  -5.893   0.214       -0.136      0.273       1557  
   1839.699  1642.471  -6.008   0.225       -0.148      0.476       1558  
   679.062   1644.755  -5.555   0.304       -0.034      0.338       1559  
   130.965   1652.970  -5.670   0.204       -0.472      -0.126      1560  
   153.561   1653.354  -5.672   0.307       -0.067      0.697       1561  
   727.467   1656.650  -5.971   0.226       -0.176      0.724       1562  
   750.250   1662.609  -5.885   0.242       -0.250      0.540       1563  
   2005.630  1662.801  -5.943   0.293       -0.258      0.759       1564  
   1367.853  1664.367  -5.159   0.231       -0.420      0.296       1565  
   1237.668  1669.789  -5.997   0.216       -0.151      0.651       1566  
   791.111   1668.834  -5.915   0.202       -0.309      -0.228      1567  
   1554.066  1672.560  -5.875   0.204       -0.170      0.381       1568  
   558.089   1679.706  -5.943   0.248       -0.181      0.966       1569  
   1257.875  1686.522  -5.927   0.263       -0.100      0.908       1570  
   1413.624  1684.731  -5.017   0.318       0.161       0.345       1571  
   1724.326  1688.672  -6.033   0.259       -0.197      0.702       1572  
   696.932   1692.053  -5.794   0.278       -0.197      0.607       1573  
   1613.751  1697.837  -6.025   0.235       -0.205      0.731       1574  
   1466.296  1698.181  -5.848   0.235       -0.543      0.097       1575  
   1400.202  1700.948  -5.720   0.210       -0.392      0.157       1576  
   929.934   1706.734  -5.892   0.209       -0.254      0.110       1577  
   789.813   1709.948  -4.983   0.295       -0.316      -0.011      1578  
   955.512   1710.455  -5.963   0.274       -0.076      0.802       1579  
   913.452   1711.311  -5.608   0.282       -0.209      0.808       1580  
   1743.738  1710.901  -5.821   0.211       -0.346      0.044       1581  
   780.820   1713.132  -4.908   0.325       0.031       -0.160      1582  
   600.363   1719.261  -5.995   0.263       -0.245      0.650       1583  
   759.001   1722.872  -5.469   0.403       0.149       -0.082      1584  
   1452.919  1725.410  -5.038   0.238       0.044       0.064       1585  
   916.961   1725.456  -5.835   0.213       -0.232      0.322       1586  
   817.190   1730.102  -5.902   0.219       -0.269      0.244       1587  
   103.908   1737.347  -5.895   0.204       -0.272      0.352       1588  
   1294.276  1743.326  -5.941   0.237       -0.326      -0.354      1589  
   1527.615  1741.490  -5.816   0.203       -0.242      -0.069      1590  
   1456.009  1746.997  -4.941   0.260       0.259       0.712       1591  
   1034.537  1748.438  -5.552   0.201       -0.511      0.031       1592  
   1471.456  1750.675  -5.625   0.211       -0.159      0.294       1593  
   1436.858  1753.444  -5.476   0.444       -0.030      0.204       1594  
   1449.650  1752.123  -4.978   0.326       -0.203      -0.112      1595  
   157.824   1758.444  -5.701   0.247       -0.148      0.188       1596  
   297.597   1757.497  -5.947   0.214       -0.157      0.012       1597  
   224.139   1765.217  -5.852   0.273       -0.081      -0.472      1598  
   621.365   1764.817  -4.822   0.217       0.223       -0.891      1599  
   1951.583  1772.080  -5.934   0.280       -0.112      0.488       1600  
   1415.839  1774.898  -5.995   0.255       -0.244      0.720       1601  
   618.939   1773.809  -4.844   0.301       -0.019      -0.610      1602  
   591.834   1772.941  -5.924   0.231       -0.214      0.462       1603  
   1684.344  1778.833  -5.434   0.212       -0.704      -0.255      1604  
   406.139   1793.015  -5.965   0.225       -0.184      -0.183      1605  
   1690.778  1799.118  -5.980   0.301       -0.180      0.947       1606  
   949.329   1808.624  -5.839   0.216       -0.219      0.399       1607  
   1646.538  1808.059  -5.973   0.217       -0.278      0.061       1608  
   1663.467  1810.766  -5.979   0.211       -0.252      0.646       1609  
   1157.733  1825.424  -5.663   0.221       -0.388      0.158       1610  
   104.938   1827.654  -5.993   0.243       -0.127      0.477       1611  
   1436.307  1831.581  -5.957   0.212       -0.355      0.306       1612  
   1331.879  1844.851  -5.099   0.212       0.035       0.074       1613  
   1251.156  1850.244  -5.911   0.292       -0.005      0.462       1614  
   12.311    1866.306  -5.992   0.287       -0.140      0.512       1615  
   270.958   1867.941  -5.972   0.235       -0.186      0.360       1616  
   1816.976  1870.678  -5.868   0.304       -0.351      0.692       1617  
   1538.392  1871.118  -5.867   0.290       -0.099      0.922       1618  
   1792.318  1873.065  -4.919   0.344       -0.006      -0.965      1619  
   1817.263  1878.583  -5.045   0.272       -0.473      -0.633      1620  
   1007.529  1882.248  -5.035   0.246       -0.366      -0.249      1621  
   1788.638  1886.485  -4.696   0.320       0.146       -0.717      1622  
   1001.725  1891.822  -5.045   0.252       -0.281      -0.280      1623  
   1641.844  1890.478  -4.848   0.232       0.230       -0.641      1624  
   530.855   1893.065  -5.053   0.216       -0.243      0.088       1625  
   870.882   1897.010  -5.896   0.208       -0.116      0.465       1626  
   920.409   1898.729  -5.995   0.262       -0.118      0.600       1627  
   1636.924  1897.492  -4.994   0.255       -0.097      -0.403      1628  
   1726.103  1901.076  -5.736   0.208       -0.301      0.068       1629  
   1084.119  1905.727  -4.877   0.216       0.146       -0.706      1630  
   560.495   1908.892  -5.935   0.268       -0.284      0.108       1631  
   1080.663  1913.978  -5.117   0.311       -0.173      -0.155      1632  
   36.940    1919.381  -5.797   0.203       -0.329      0.238       1633  
   896.725   1918.109  -5.977   0.222       -0.101      0.275       1634  
   828.049   1922.172  -5.829   0.256       -0.135      0.268       1635  
   1597.114  1929.149  -4.921   0.235       0.096       -0.857      1636  
   1193.265  1933.761  -5.690   0.217       -0.432      0.125       1637  
   544.411   1938.770  -4.818   0.253       -0.088      -0.906      1638  
   1593.949  1936.977  -4.954   0.317       -0.247      -0.725      1639  
   402.486   1941.533  -5.931   0.202       -0.299      0.518       1640  
   135.213   1944.269  -5.867   0.293       -0.135      0.946       1641  
   544.256   1946.547  -4.968   0.333       -0.288      -0.585      1642  
   569.346   1951.636  -5.969   0.271       -0.073      0.985       1643  
   82.776    1957.229  -5.829   0.268       0.049       0.934       1644  
   1640.572  1956.064  -5.164   0.243       -0.187      -0.292      1645  
   327.463   1963.198  -5.953   0.273       -0.084      -0.220      1646  
   228.942   1966.637  -5.893   0.200       -0.396      0.528       1647  
   1958.906  1980.585  -5.949   0.204       -0.305      0.391       1648  
   1199.148  1980.043  -5.293   0.223       -0.235      -0.032      1649  
   484.238   1984.009  -5.546   0.203       -0.227      0.852       1650  
   1308.069  1981.511  -5.492   0.238       -0.720      0.027       1651  
   1512.852  1986.225  -5.809   0.289       -0.144      0.934       1652  
   967.056   1993.037  -5.635   0.290       -0.067      -0.207      1653  
   1293.128  2000.228  -5.074   0.242       -0.396      0.082       1654  
   151.492   2003.568  -5.888   0.226       -0.224      0.491       1655  
   690.397   2002.757  -5.994   0.274       -0.249      0.223       1656  
   1113.143  2005.882  -5.790   0.201       -0.366      0.103       1657  
   19.660    2017.377  -5.942   0.273       -0.047      0.543       1658  
   923.677   2026.176  -5.737   0.225       -0.533      -0.091      1659  
   1646.840  2034.086  -5.541   0.397       -0.465      -0.147      1660  
   252.043   2036.304  -5.084   0.237       -0.048      -0.274      1661  
