#K IRAF       = NOAO/IRAFV2.16.1        version    %-23s     
#K USER       = juan                    name       %-23s     
#K HOST       = juan-UX303LA            computer   %-23s     
#K DATE       = 2016-03-27              yyyy-mm-dd %-23s     
#K TIME       = 21:14:56                hh:mm:ss   %-23s     
#K PACKAGE    = apphot                  name       %-23s     
#K TASK       = phot                    name       %-23s     
#
#K SCALE      = 1.                      units      %-23.7g   
#K FWHMPSF    = 10.65                   scaleunit  %-23.7g   
#K EMISSION   = yes                     switch     %-23b     
#K DATAMIN    = INDEF                   counts     %-23.7g   
#K DATAMAX    = INDEF                   counts     %-23.7g   
#K EXPOSURE   = EXPTIME                 keyword    %-23s     
#K AIRMASS    = ""                      keyword    %-23s     
#K FILTER     = ""                      keyword    %-23s     
#K OBSTIME    = ""                      keyword    %-23s     
#
#K NOISE      = poisson                 model      %-23s     
#K SIGMA      = 226.                    counts     %-23.7g   
#K GAIN       = GAIN                    keyword    %-23s     
#K EPADU      = 1.                      e-/adu     %-23.7g   
#K CCDREAD    = RDNOISE                 keyword    %-23s     
#K READNOISE  = 5.9                     e-         %-23.7g   
#
#K CALGORITHM = centroid                algorithm  %-23s     
#K CBOXWIDTH  = 5.                      scaleunit  %-23.7g   
#K CTHRESHOLD = 0.                      sigma      %-23.7g   
#K MINSNRATIO = 1.                      number     %-23.7g   
#K CMAXITER   = 10                      number     %-23d     
#K MAXSHIFT   = 1.                      scaleunit  %-23.7g   
#K CLEAN      = no                      switch     %-23b     
#K RCLEAN     = 1.                      scaleunit  %-23.7g   
#K RCLIP      = 2.                      scaleunit  %-23.7g   
#K KCLEAN     = 3.                      sigma      %-23.7g   
#
#K SALGORITHM = mode                    algorithm  %-23s     
#K ANNULUS    = 53.25                   scaleunit  %-23.7g   
#K DANNULUS   = 31.95                   scaleunit  %-23.7g   
#K SKYVALUE   = 226.                    counts     %-23.7g   
#K KHIST      = 3.                      sigma      %-23.7g   
#K BINSIZE    = 0.1                     sigma      %-23.7g   
#K SMOOTH     = no                      switch     %-23b     
#K SMAXITER   = 10                      number     %-23d     
#K SLOCLIP    = 0.                      percent    %-23.7g   
#K SHICLIP    = 0.                      percent    %-23.7g   
#K SNREJECT   = 50                      number     %-23d     
#K SLOREJECT  = 3.                      sigma      %-23.7g   
#K SHIREJECT  = 3.                      sigma      %-23.7g   
#K RGROW      = 0.                      scaleunit  %-23.7g   
#
#K WEIGHTING  = constant                model      %-23s     
#K APERTURES  = 15                      scaleunit  %-23s     
#K ZMAG       = 25.                     zeropoint  %-23.7g   
#
#K IMAGE      = I                       imagename  %-23s     
#K MAXNPSF    = 50                      number     %-23d     
#K NEWSCALE   = 1.                      units      %-23.7g   
#K PSFRAD     = 13.                     scaleunit  %-23.7g   
#K FITRAD     = 10.65                   scaleunit  %-23.7g   
#
#N ID    XCENTER   YCENTER   MAG         MSKY                                  \
#U ##    pixels    pixels    magnitudes  counts                                \
#F %-9d  %-10.3f   %-10.3f   %-12.3f     %-15.7g                                
#
1622     1790.513  1883.389  12.783      3348.043                               
1504     1013.000  1487.807  13.168      6657.044                               
832      882.981   815.804   13.180      14477.77                               
875      1297.315  842.897   13.210      12141.52                               
1591     1455.703  1747.193  13.226      4169.779                               
36       1988.707  84.916    13.280      3336.064                               
104      961.346   211.371   13.304      7939.238                               
817      681.431   813.802   13.323      10399.56                               
945      1442.465  883.126   13.324      9272.74                                
963      865.819   897.772   13.326      13623.4                                
476      830.455   578.162   13.377      12276.25                               
250      1486.117  390.245   13.381      6799.61                                
1602     618.154   1774.489  13.382      3838.467                               
1582     780.390   1714.362  13.393      4457.22                                
477      949.137   579.151   13.411      13676.51                               
741      1065.986  761.530   13.415      14825.05                               
756      882.527   767.125   13.421      14436.46                               
1639     1594.448  1936.760  13.432      3533.178                               
489      1354.575  590.000   13.433      10112.25                               
1043     1359.902  963.987   13.436      10609.5                                
1260     452.410   1165.335  13.437      5266.537                               
434      1451.085  545.478   13.451      7936.641                               
1102     1063.573  1013.299  13.472      12415.07                               
115      1155.420  224.450   13.485      7459.295                               
1318     609.710   1234.945  13.489      6766.348                               
1106     585.492   1016.468  13.500      7917.844                               
1628     1636.116  1897.602  13.507      3559.546                               
241      1144.203  386.631   13.510      10055.31                               
812      991.158   811.692   13.518      14981.53                               
647      1071.857  701.835   13.520      14396.8                                
996      1257.676  933.921   13.521      12358.16                               
857      1392.347  831.634   13.523      10866.78                               
1642     543.512   1948.000  13.530      3406.284                               
367      661.706   489.222   13.535      8444.561                               
1420     902.868   1347.508  13.537      7434.115                               
1632     1080.155  1913.922  13.537      3924.265                               
326      789.469   459.412   13.539      10082.56                               
1445     934.074   1385.426  13.541      7446.973                               
693      1781.000  731.828   13.555      4684.303                               
716      950.698   744.258   13.559      14363.48                               
1500     1341.921  1485.836  13.561      5446.386                               
731      758.550   751.537   13.562      12434.21                               
550      1224.487  632.232   13.568      11801.35                               
548      1051.685  629.159   13.570      13835.89                               
1285     1071.359  1178.830  13.572      9753.941                               
220      1061.624  360.828   13.575      9678.41                                
75       1651.088  172.115   13.578      4428.925                               
1180     1068.322  1084.897  13.588      11127.01                               
190      1526.921  326.788   13.594      5634.356                               
213      1324.920  352.883   13.609      7465.209                               
