#K IRAF       = NOAO/IRAFV2.16.1        version    %-23s     
#K USER       = juan                    name       %-23s     
#K HOST       = juan-UX303LA            computer   %-23s     
#K DATE       = 2016-03-27              yyyy-mm-dd %-23s     
#K TIME       = 21:26:48                hh:mm:ss   %-23s     
#K PACKAGE    = daophot                 name       %-23s     
#K TASK       = psf                     name       %-23s     
#K IMAGE      = I                       imagename  %-23s     
#K PHOTFILE   = I.mag.1                 filename   %-23s     
#K PSTFILE    = I.pst.1                 filename   %-23s     
#K PSFIMAGE   = I.psf.1                 imagename  %-23s     
#K GRPSFILE   = I.psg.1                 filename   %-23s     
#K OPSTFILE   = I.pst.2                 filename   %-23s     
#K SCALE      = 1.                      units/pix  %-23.7g   
#K OTIME      = INDEF                   timeunit   %-23s     
#K IFILTER    = INDEF                   filter     %-23s     
#K XAIRMASS   = INDEF                   number     %-23.7g   
#K PSFRAD     = 13.                     scaleunit  %-23.7g   
#K FITRAD     = 10.65                   scaleunit  %-23.7g   
#
#N ID    GROUP XCENTER   YCENTER   MAG         MSKY                            \
#U ##    ##    pixels    pixels    magnitudes  counts                          \
#F %-9d  %-6d  %-10.3f   %-10.3f   %-12.3f     %-15.7g                          
#
1602     1     618.154   1774.489  13.382      3838.467                         
1599     1     621.555   1763.870  13.486      3913.591                         
1603     1     591.446   1778.095  15.001      3653.957                         
1582     2     780.390   1714.362  13.393      4457.22                          
1578     2     789.530   1709.766  13.443      4482.891                         
1584     2     758.696   1722.807  14.829      4401.607                         
1639     3     1594.448  1936.760  13.432      3533.178                         
1636     3     1597.482  1927.468  13.545      3557.368                         
1260     4     452.410   1165.335  13.437      5266.537                         
1252     4     454.194   1156.637  13.442      5438.573                         
1262     4     427.482   1168.044  14.294      5123.874                         
1318     5     609.710   1234.945  13.489      6766.348                         
1322     5     604.959   1238.987  13.522      6698.312                         
1642     6     543.512   1948.000  13.530      3406.284                         
1638     6     544.481   1939.763  13.540      3406.7                           
1643     6     574.637   1950.375  15.066      3417.683                         
367      7     661.706   489.222   13.535      8444.561                         
340      7     650.049   468.827   14.546      8255.938                         
354      7     667.277   483.100   13.587      8431.539                         
359      7     646.912   484.181   14.366      8365.27                          
362      7     670.207   489.235   13.573      8564.869                         
332      7     633.383   464.014   14.795      8236.213                         
1632     8     1080.155  1913.922  13.537      3924.265                         
1630     8     1086.469  1907.099  13.590      4028.428                         
1445     9     934.074   1385.426  13.541      7446.973                         
1438     9     935.718   1370.468  14.107      7393.055                         
1452     9     932.000   1393.180  13.648      7388.153                         
693      10    1781.000  731.828   13.555      4684.303                         
641      10    1790.831  697.975   14.449      4614.253                         
669      10    1755.420  718.324   14.297      5124.574                         
677      10    1783.008  727.000   13.588      4690.336                         
731      11    758.550   751.537   13.562      12434.21                         
709      11    761.539   742.350   13.691      12340.57                         
715      11    754.882   745.913   13.623      12321.2                          
750      11    741.085   766.277   14.908      12498.71                         
75       12    1651.088  172.115   13.578      4428.925                         
190      13    1526.921  326.788   13.594      5634.356                         
167      13    1522.367  297.338   14.134      5759.344                         
187      13    1540.557  326.612   14.075      5566.389                         
