###################################################################
## OUTPUT of StarlightChains_v04.for    [Cid@UFSC - 01/Apr/2007] ##
###################################################################

## Some input info
Omega_cen.txt                            [arq_obs]
Base.BC03.S                              [arq_base]
Omega_cen.msk                            [arq_masks]
StCv04.C11.config                        [arq_config]
  150                                    [N_base]
    0                                    [N_YAV_components = # of components with extra extinction!]
    0                                    [i_FitPowerLaw (1/0 = Yes/No)]
-9.99                                    [alpha_PowerLaw]
CCM                                      [red_law_option]
 1.030560                                [q_norm = A(l_norm)/A(V)]

## (Re)Sampling Parameters
 4826.00                                 [l_ini (A)]
 6100.00                                 [l_fin (A)]
    1.00                                 [dl    (A)]     (OBS: dl_cushion =    50.00 A)

## Normalization info
 5355.00                                 [l_norm (A) - for base]
 5330.00                                 [llow_norm (A) - window for f_obs]
 5380.00                                 [lupp_norm (A) - window for f_obs]
5.639691E-14                             [fobs_norm (in input units)]

## S/N
 5330.00                                 [llow_SN (A) - window for S/N]
 5380.00                                 [lupp_SN (A) - window for S/N]
  32.722                                 [S/N in S/N window]
  32.757                                 [S/N in norm. window]
  10.000                                 [S/N_err in S/N window]
  10.011                                 [S/N_err in norm. window]
  1.0000                                 [fscale_chi2]

## etc...
 -2147483648                             [idum_orig]
  1275                                   [NOl_eff]
  1275                                   [Nl_eff]
     0    NSIGMA                         [Ntot_cliped & clip_method]
  1639260                                [Nglobal_steps]
   7                                     [N_chains]
  47                                     [NEX0s_base = N_base in EX0s-fits]
 0   0   1       26   2.0   1.126E+01    [Clip-Bug, RC-Crash & Burn-In warning-flags, n_censored_weights, wei_nsig_threshold & wei_limit]
    28     27.671     27.652      0.019  [idt_all, wdt_TotTime, wdt_UsrTime & wdt_SysTime (sec)]

## Synthesis Results - Best model ##

 7.42444E-02                             [chi2/Nl_eff]
     2.11110                             [adev (%)]

   102.04379                             [sum-of-x (%)]
 7.04455E-14                             [Flux_tot (units of input spectrum!)]
 1.06544E-09                             [Mini_tot (???)]
 5.29495E-10                             [Mcor_tot (???)]

 154.44                                  [v0_min  (km/s)]
  88.06                                  [vd_min  (km/s)]
 0.2130                                  [AV_min  (mag)]
 0.0000                                  [YAV_min (mag)]

# j     x_j(%)      Mini_j(%)     Mcor_j(%)     age_j(yr)     Z_j      (L/M)_j    YAV?  Mstars   component_j        a/Fe...       SSP_chi2r SSP_adev(%)   SSP_AV   SSP_x(%)
  1      5.5327     1.2909E-01    2.5975E-01    1.000000E+06  0.00010  2.777E-03    0   1.0000   age020_m22            0.0000     1.6253E-01     2.9718   2.7717   100.8105
  2      0.0000     0.0000E+00    0.0000E+00    3.160000E+06  0.00010  2.827E-02    0   1.0000   age045_m22            0.0000     1.2483E-01     2.5357   0.9499   101.7379
  3     53.6198     3.0054E-01    5.7947E-01    5.010000E+06  0.00010  1.156E-02    0   0.9582   age055_m22            0.0000     1.1180E-01     2.5017   0.7458   100.4946
  4      0.0000     0.0000E+00    0.0000E+00    6.610000E+06  0.00010  3.301E-03    0   0.9297   age061_m22            0.0000     1.8963E-01     3.1058   2.5433   101.1612
  5      0.0000     0.0000E+00    0.0000E+00    8.710000E+06  0.00010  2.541E-03    0   0.9030   age067_m22            0.0000     1.9206E-01     3.1279   2.5625   101.1467
  6      0.0000     0.0000E+00    0.0000E+00    1.000000E+07  0.00010  2.094E-03    0   0.8902   age070_m22            0.0000     2.0013E-01     3.2038   2.5963   101.2126
  7      0.0000     0.0000E+00    0.0000E+00    1.445000E+07  0.00010  1.658E-03    0   0.8589   age078_m22            0.0000     1.9688E-01     3.1268   2.5515   100.9157
  8      0.0000     0.0000E+00    0.0000E+00    2.512000E+07  0.00010  1.512E-03    0   0.8174   age090_m22            0.0000     1.9722E-01     3.0493   2.3688   100.4078
  9      0.0000     0.0000E+00    0.0000E+00    4.000000E+07  0.00010  1.430E-03    0   0.7830   age104_m22            0.0000     1.8068E-01     2.9277   2.2327   100.1012
 10      0.0000     0.0000E+00    0.0000E+00    5.500000E+07  0.00010  1.239E-03    0   0.7597   age110_m22            0.0000     1.8604E-01     2.9336   2.1819   100.2831
 11      0.0000     0.0000E+00    0.0000E+00    1.015200E+08  0.00010  1.074E-03    0   0.7138   age116_m22            0.0000     1.8047E-01     2.8550   1.8640   100.0575
 12      0.0000     0.0000E+00    0.0000E+00    1.609000E+08  0.00010  6.835E-04    0   0.6775   age120_m22            0.0000     1.7697E-01     2.8231   1.3748   100.1951
 13      0.0000     0.0000E+00    0.0000E+00    2.861200E+08  0.00010  5.237E-04    0   0.6412   age125_m22            0.0000     2.6111E-01     3.1327   1.6023   100.4370
 14      0.0000     0.0000E+00    0.0000E+00    5.088000E+08  0.00010  3.761E-04    0   0.6083   age130_m22            0.0000     2.8218E-01     3.1963   1.4118   100.5331
 15      0.0000     0.0000E+00    0.0000E+00    9.047900E+08  0.00010  2.535E-04    0   0.5785   age135_m22            0.0000     2.7613E-01     3.1901   1.2492   100.7364
 16      0.0000     0.0000E+00    0.0000E+00    1.278050E+09  0.00010  2.118E-04    0   0.5588   age138_m22            0.0000     1.6884E-01     2.7468   0.6043   100.5317
 17      0.0000     0.0000E+00    0.0000E+00    1.434000E+09  0.00010  2.019E-04    0   0.5532   age139_m22            0.0000     1.4961E-01     2.6578   0.4356   100.4761
 18      0.0000     0.0000E+00    0.0000E+00    2.500000E+09  0.00010  1.231E-04    0   0.5296   age150_m22            0.0000     1.3980E-01     2.6250   0.2824   100.2785
 19      0.0000     0.0000E+00    0.0000E+00    4.250000E+09  0.00010  8.495E-05    0   0.5110   age158_m22            0.0000     1.1699E-01     2.4799   0.1030   100.3277
 20      0.0000     0.0000E+00    0.0000E+00    6.250000E+09  0.00010  6.130E-05    0   0.4985   age166_m22            0.0000     1.0687E-01     2.4072   0.0096   100.5237
 21      0.0000     0.0000E+00    0.0000E+00    7.500000E+09  0.00010  5.291E-05    0   0.4931   age171_m22            0.0000     1.0549E-01     2.4001  -0.0329   100.4179
 22      0.0000     0.0000E+00    0.0000E+00    1.000000E+10  0.00010  4.111E-05    0   0.4854   age181_m22            0.0000     1.0418E-01     2.3909  -0.0691   100.3662
 23      0.0000     0.0000E+00    0.0000E+00    1.300000E+10  0.00010  3.290E-05    0   0.4791   age193_m22            0.0000     1.0120E-01     2.3675  -0.1199   100.2901
 24      0.0000     0.0000E+00    0.0000E+00    1.500000E+10  0.00010  2.913E-05    0   0.4766   age201_m22            0.0000     9.8610E-02     2.3454  -0.1607   100.3125
 25      0.0000     0.0000E+00    0.0000E+00    1.800000E+10  0.00010  2.494E-05    0   0.4735   age213_m22            0.0000     9.4166E-02     2.3078  -0.2346   100.4037
 26      0.0000     0.0000E+00    0.0000E+00    1.000000E+06  0.00040  2.835E-03    0   1.0000   age020_m32            0.0000     1.7093E-01     3.0389   2.7384   100.9841
 27      0.0000     0.0000E+00    0.0000E+00    3.160000E+06  0.00040  1.533E-02    0   1.0000   age045_m32            0.0000     1.9282E-01     2.9686   2.1943   100.9718
 28      0.0000     0.0000E+00    0.0000E+00    5.010000E+06  0.00040  7.242E-03    0   0.9532   age055_m32            0.0000     1.6254E-01     2.8638   2.1441   100.6677
 29      0.0000     0.0000E+00    0.0000E+00    6.610000E+06  0.00040  4.104E-03    0   0.9243   age061_m32            0.0000     1.8760E-01     3.0528   2.4871   100.9382
 30      0.0007     1.3340E-05    2.4161E-05    8.710000E+06  0.00040  3.217E-03    0   0.9001   age067_m32            0.0000     1.9459E-01     3.0862   2.5063   100.9050
 31      0.0000     0.0000E+00    0.0000E+00    1.000000E+07  0.00040  2.768E-03    0   0.8877   age070_m32            0.0000     1.9427E-01     3.0763   2.4908   100.8392
 32      0.0000     0.0000E+00    0.0000E+00    1.445000E+07  0.00040  2.766E-03    0   0.8578   age078_m32            0.0000     1.7716E-01     2.9037   2.0732   100.3466
 33      0.0001     1.9730E-06    3.2419E-06    2.512000E+07  0.00040  1.984E-03    0   0.8166   age090_m32            0.0000     1.6869E-01     2.8385   1.8942   100.1453
 34      0.0000     0.0000E+00    0.0000E+00    4.000000E+07  0.00040  1.634E-03    0   0.7827   age104_m32            0.0000     1.6502E-01     2.8039   1.8138   100.1185
 35      0.0000     0.0000E+00    0.0000E+00    5.500000E+07  0.00040  1.325E-03    0   0.7593   age110_m32            0.0000     1.6989E-01     2.8290   1.8084   100.0343
 36      0.0000     0.0000E+00    0.0000E+00    1.015200E+08  0.00040  1.029E-03    0   0.7143   age116_m32            0.0000     1.9388E-01     2.8966   1.7060   100.0919
 37      0.0000     0.0000E+00    0.0000E+00    1.609000E+08  0.00040  8.388E-04    0   0.6856   age120_m32            0.0000     2.0656E-01     2.9152   1.5114   100.4865
 38      0.0000     0.0000E+00    0.0000E+00    2.861200E+08  0.00040  6.124E-04    0   0.6509   age125_m32            0.0000     2.5180E-01     3.0947   1.3483   100.6386
 39      0.0000     0.0000E+00    0.0000E+00    5.088000E+08  0.00040  4.114E-04    0   0.6182   age130_m32            0.0000     2.5771E-01     3.1146   1.2337   100.5038
 40      0.0000     0.0000E+00    0.0000E+00    9.047900E+08  0.00040  2.701E-04    0   0.5890   age135_m32            0.0000     1.8381E-01     2.8278   0.7847   100.3668
 41      0.0000     0.0000E+00    0.0000E+00    1.278050E+09  0.00040  2.146E-04    0   0.5687   age138_m32            0.0000     1.5076E-01     2.6792   0.3995   100.2949
 42      0.0000     0.0000E+00    0.0000E+00    1.434000E+09  0.00040  1.951E-04    0   0.5632   age139_m32            0.0000     1.4217E-01     2.6270   0.3166   100.3952
 43      0.0000     0.0000E+00    0.0000E+00    2.500000E+09  0.00040  1.299E-04    0   0.5386   age150_m32            0.0000     1.1509E-01     2.4590   0.0308   100.7566
 44      0.0000     0.0000E+00    0.0000E+00    4.250000E+09  0.00040  8.556E-05    0   0.5199   age158_m32            0.0000     9.6101E-02     2.3128  -0.1242   100.6801
 45      0.0000     0.0000E+00    0.0000E+00    6.250000E+09  0.00040  6.321E-05    0   0.5076   age166_m32            0.0000     8.6577E-02     2.2337  -0.2301   100.4651
 46      0.0839     1.0055E-01    1.0171E-01    7.500000E+09  0.00040  5.407E-05    0   0.5027   age171_m32            0.0000     8.4514E-02     2.2134  -0.2593   100.4955
 47      0.0396     6.0754E-02    6.0488E-02    1.000000E+10  0.00040  4.222E-05    0   0.4948   age181_m32            0.0000     8.3071E-02     2.1983  -0.2954   100.5155
 48      0.0000     0.0000E+00    0.0000E+00    1.300000E+10  0.00040  3.445E-05    0   0.4870   age193_m32            0.0000     8.4403E-02     2.2148  -0.3160   100.6306
 49      0.0000     0.0000E+00    0.0000E+00    1.500000E+10  0.00040  3.039E-05    0   0.4854   age201_m32            0.0000     8.5758E-02     2.2280  -0.3229   100.7108
 50      0.0000     0.0000E+00    0.0000E+00    1.800000E+10  0.00040  2.592E-05    0   0.4819   age213_m32            0.0000     8.5548E-02     2.2284  -0.3639   100.7764
 51      0.0000     0.0000E+00    0.0000E+00    1.000000E+06  0.00400  3.810E-03    0   1.0000   age020_m42            0.0000     1.6423E-01     2.9681   2.7141   100.7588
 52      0.0000     0.0000E+00    0.0000E+00    3.160000E+06  0.00400  1.739E-02    0   0.9999   age045_m42            0.0000     1.6680E-01     2.8253   1.9321   102.1741
 53      0.0000     0.0000E+00    0.0000E+00    5.010000E+06  0.00400  9.804E-03    0   0.9488   age055_m42            0.0000     1.6469E-01     2.8293   2.2350   101.1438
 54      0.0000     0.0000E+00    0.0000E+00    6.610000E+06  0.00400  1.163E-02    0   0.9220   age061_m42            0.0000     1.5516E-01     2.6894   1.8211   101.5915
 55      0.0000     0.0000E+00    0.0000E+00    8.710000E+06  0.00400  8.343E-03    0   0.8983   age067_m42            0.0000     1.1675E-01     2.4340   1.4566   101.5612
 56      0.0000     0.0000E+00    0.0000E+00    1.000000E+07  0.00400  6.329E-03    0   0.8862   age070_m42            0.0000     1.0476E-01     2.3663   1.2912   101.6666
 57      0.0000     0.0000E+00    0.0000E+00    1.445000E+07  0.00400  3.381E-03    0   0.8571   age078_m42            0.0000     1.2901E-01     2.5509   1.7266   101.1652
 58      0.0000     0.0000E+00    0.0000E+00    2.512000E+07  0.00400  2.611E-03    0   0.8174   age090_m42            0.0000     1.0250E-01     2.3587   1.1913   101.7108
 59      0.0000     0.0000E+00    0.0000E+00    4.000000E+07  0.00400  1.985E-03    0   0.7851   age104_m42            0.0000     1.0087E-01     2.3623   0.9787   102.0238
 60      0.0000     0.0000E+00    0.0000E+00    5.500000E+07  0.00400  1.605E-03    0   0.7629   age110_m42            0.0000     1.2163E-01     2.4301   1.2729   101.4720
 61      0.0000     0.0000E+00    0.0000E+00    1.015200E+08  0.00400  1.164E-03    0   0.7207   age116_m42            0.0000     1.6818E-01     2.6339   1.4214   101.1442
 62      0.0000     0.0000E+00    0.0000E+00    1.609000E+08  0.00400  9.249E-04    0   0.6930   age120_m42            0.0000     1.8767E-01     2.7286   1.3246   101.7251
 63      0.0000     0.0000E+00    0.0000E+00    2.861200E+08  0.00400  6.611E-04    0   0.6613   age125_m42            0.0000     1.8845E-01     2.7102   0.9273   101.8119
 64      0.0000     0.0000E+00    0.0000E+00    5.088000E+08  0.00400  4.007E-04    0   0.6313   age130_m42            0.0000     1.9002E-01     2.7441   0.7619   101.3195
 65      0.0000     0.0000E+00    0.0000E+00    9.047900E+08  0.00400  2.655E-04    0   0.6024   age135_m42            0.0000     1.3938E-01     2.5372   0.3466   101.5216
 66      0.0000     0.0000E+00    0.0000E+00    1.278050E+09  0.00400  2.745E-04    0   0.5837   age138_m42            0.0000     1.0744E-01     2.4761  -0.3044   103.1571
 67      0.0000     0.0000E+00    0.0000E+00    1.434000E+09  0.00400  1.821E-04    0   0.5716   age139_m42            0.0000     1.0543E-01     2.4146  -0.1234   103.2192
 68      0.0062     3.6215E-03    3.9809E-03    2.500000E+09  0.00400  1.102E-04    0   0.5463   age150_m42            0.0000     1.0015E-01     2.4148  -0.3753   103.6101
 69      0.0470     4.5671E-02    4.8421E-02    4.250000E+09  0.00400  6.672E-05    0   0.5269   age158_m42            0.0000     1.0939E-01     2.5129  -0.5376   103.6886
 70      0.4452     5.7614E-01    5.9715E-01    6.250000E+09  0.00400  5.007E-05    0   0.5151   age166_m42            0.0000     1.2051E-01     2.6298  -0.6274   103.9425
 71      6.1713     9.1419E+00    9.3999E+00    7.500000E+09  0.00400  4.374E-05    0   0.5110   age171_m42            0.0000     1.3012E-01     2.7164  -0.6893   104.1587
 72      0.0000     0.0000E+00    0.0000E+00    1.000000E+10  0.00400  3.403E-05    0   0.5028   age181_m42            0.0000     1.4385E-01     2.8234  -0.7524   104.4451
 73     21.6528     5.2001E+01    5.1554E+01    1.300000E+10  0.00400  2.698E-05    0   0.4927   age193_m42            0.0000     1.6005E-01     2.9374  -0.7984   104.6504
 74     11.8833     3.1949E+01    3.1623E+01    1.500000E+10  0.00400  2.410E-05    0   0.4919   age201_m42            0.0000     1.6154E-01     2.9564  -0.8084   104.6793
 75      0.0000     0.0000E+00    0.0000E+00    1.800000E+10  0.00400  2.057E-05    0   0.4874   age213_m42            0.0000     1.6469E-01     2.9895  -0.8197   104.6026
 76      0.0000     0.0000E+00    0.0000E+00    1.000000E+06  0.00800  4.354E-03    0   1.0000   age020_m52            0.0000     1.8715E-01     3.1224   2.6881   101.1011
 77      0.0000     0.0000E+00    0.0000E+00    3.160000E+06  0.00800  1.076E-02    0   0.9966   age045_m52            0.0000     1.8396E-01     3.0361   2.5899   100.8512
 78      0.0000     0.0000E+00    0.0000E+00    5.010000E+06  0.00800  9.926E-03    0   0.9443   age055_m52            0.0000     1.7863E-01     2.9107   2.3761   100.7960
 79      0.0000     0.0000E+00    0.0000E+00    6.610000E+06  0.00800  1.255E-02    0   0.9177   age061_m52            0.0000     1.0933E-01     2.4522   0.9880   102.8590
 80      0.0000     0.0000E+00    0.0000E+00    8.710000E+06  0.00800  8.106E-03    0   0.8948   age067_m52            0.0000     1.1551E-01     2.4503   1.3607   102.2840
 81      0.0000     0.0000E+00    0.0000E+00    1.000000E+07  0.00800  5.391E-03    0   0.8827   age070_m52            0.0000     1.2438E-01     2.5148   1.6836   101.9945
 82      0.0000     0.0000E+00    0.0000E+00    1.445000E+07  0.00800  3.755E-03    0   0.8552   age078_m52            0.0000     1.3202E-01     2.5630   1.8110   101.6183
 83      0.0000     0.0000E+00    0.0000E+00    2.512000E+07  0.00800  2.712E-03    0   0.8162   age090_m52            0.0000     1.1734E-01     2.4735   1.4242   102.2759
 84      0.0000     0.0000E+00    0.0000E+00    4.000000E+07  0.00800  1.955E-03    0   0.7841   age104_m52            0.0000     1.2143E-01     2.4735   1.3635   102.3506
 85      0.0000     0.0000E+00    0.0000E+00    5.500000E+07  0.00800  1.549E-03    0   0.7627   age110_m52            0.0000     1.4212E-01     2.5659   1.4566   101.8211
 86      0.0000     0.0000E+00    0.0000E+00    1.015200E+08  0.00800  1.117E-03    0   0.7226   age116_m52            0.0000     1.7289E-01     2.6964   1.4603   101.6431
 87      0.0000     0.0000E+00    0.0000E+00    1.609000E+08  0.00800  8.650E-04    0   0.6963   age120_m52            0.0000     1.9233E-01     2.7625   1.2802   101.8495
 88      0.0000     0.0000E+00    0.0000E+00    2.861200E+08  0.00800  5.946E-04    0   0.6665   age125_m52            0.0000     2.1046E-01     2.8136   1.0555   102.6126
 89      0.0000     0.0000E+00    0.0000E+00    5.088000E+08  0.00800  3.798E-04    0   0.6377   age130_m52            0.0000     2.0574E-01     2.8338   0.7692   103.2577
 90      0.0000     0.0000E+00    0.0000E+00    9.047900E+08  0.00800  2.471E-04    0   0.6086   age135_m52            0.0000     1.5921E-01     2.7158   0.2868   103.9707
 91      0.0000     0.0000E+00    0.0000E+00    1.278050E+09  0.00800  2.457E-04    0   0.5907   age138_m52            0.0000     1.2905E-01     2.7298  -0.3812   105.7628
 92      0.0000     0.0000E+00    0.0000E+00    1.434000E+09  0.00800  1.710E-04    0   0.5787   age139_m52            0.0000     1.2654E-01     2.6875  -0.2549   105.4768
 93      0.0000     0.0000E+00    0.0000E+00    2.500000E+09  0.00800  9.627E-05    0   0.5519   age150_m52            0.0000     1.3463E-01     2.7821  -0.5576   106.1576
 94      0.1130     1.3423E-01    1.4369E-01    4.250000E+09  0.00800  5.453E-05    0   0.5320   age158_m52            0.0000     1.2892E-01     2.7436  -0.6319   105.9833
 95      0.1434     2.1340E-01    2.2316E-01    6.250000E+09  0.00800  4.354E-05    0   0.5197   age166_m52            0.0000     1.4259E-01     2.8694  -0.7797   106.6051
 96      1.6022     2.8527E+00    2.9499E+00    7.500000E+09  0.00800  3.639E-05    0   0.5139   age171_m52            0.0000     1.4515E-01     2.8892  -0.8049   106.5438
 97      0.0000     0.0000E+00    0.0000E+00    1.000000E+10  0.00800  2.907E-05    0   0.5054   age181_m52            0.0000     1.5711E-01     2.9971  -0.8835   106.7749
 98      0.1007     2.8205E-01    2.8309E-01    1.300000E+10  0.00800  2.313E-05    0   0.4988   age193_m52            0.0000     1.7764E-01     3.1470  -0.9416   106.9995
 99      0.0000     0.0000E+00    0.0000E+00    1.500000E+10  0.00800  2.023E-05    0   0.4936   age201_m52            0.0000     1.8843E-01     3.2209  -0.9651   107.0948
100      0.6021     2.2091E+00    2.1727E+00    1.800000E+10  0.00800  1.766E-05    0   0.4888   age213_m52            0.0000     1.9740E-01     3.2890  -0.9926   107.1009
101      0.0000     0.0000E+00    0.0000E+00    1.000000E+06  0.02000  6.819E-03    0   1.0000   age020_m62            0.0000     1.6921E-01     2.9574   2.6734   100.7243
102      0.0000     0.0000E+00    0.0000E+00    3.160000E+06  0.02000  1.322E-02    0   0.9858   age045_m62            0.0000     1.5936E-01     2.8575   2.5447   100.3680
103      0.0000     0.0000E+00    0.0000E+00    5.010000E+06  0.02000  1.270E-02    0   0.9342   age055_m62            0.0000     1.5647E-01     2.7701   2.2313   100.5699
104      0.0000     0.0000E+00    0.0000E+00    6.610000E+06  0.02000  1.043E-02    0   0.9090   age061_m62            0.0000     1.2151E-01     2.5182   1.7184   101.6285
105      0.0000     0.0000E+00    0.0000E+00    8.710000E+06  0.02000  5.863E-03    0   0.8861   age067_m62            0.0000     1.3887E-01     2.8934   0.7184   104.1792
106      0.0000     0.0000E+00    0.0000E+00    1.000000E+07  0.02000  5.228E-03    0   0.8751   age070_m62            0.0000     1.1775E-01     2.6478   0.9578   103.8829
107      0.0000     0.0000E+00    0.0000E+00    1.445000E+07  0.02000  3.741E-03    0   0.8472   age078_m62            0.0000     1.1173E-01     2.5428   1.1862   103.9238
108      0.0000     0.0000E+00    0.0000E+00    2.512000E+07  0.02000  2.225E-03    0   0.8099   age090_m62            0.0000     1.1876E-01     2.6491   1.1281   103.5953
109      0.0000     0.0000E+00    0.0000E+00    4.000000E+07  0.02000  1.744E-03    0   0.7799   age104_m62            0.0000     1.3722E-01     2.6599   1.2478   102.9150
110      0.0000     0.0000E+00    0.0000E+00    5.500000E+07  0.02000  1.398E-03    0   0.7595   age110_m62            0.0000     1.5428E-01     2.6998   1.3169   102.4609
111      0.0000     0.0000E+00    0.0000E+00    1.015200E+08  0.02000  9.584E-04    0   0.7221   age116_m62            0.0000     1.8463E-01     2.7871   1.3446   102.4071
112      0.0000     0.0000E+00    0.0000E+00    1.609000E+08  0.02000  7.296E-04    0   0.6978   age120_m62            0.0000     2.1224E-01     2.8552   1.2698   102.7805
113      0.0000     0.0000E+00    0.0000E+00    2.861200E+08  0.02000  5.242E-04    0   0.6700   age125_m62            0.0000     2.3621E-01     2.9105   0.9609   103.7054
114      0.0000     0.0000E+00    0.0000E+00    5.088000E+08  0.02000  3.343E-04    0   0.6430   age130_m62            0.0000     2.0886E-01     2.8731   0.6518   104.3656
115      0.0000     0.0000E+00    0.0000E+00    9.047900E+08  0.02000  2.069E-04    0   0.6152   age135_m62            0.0000     1.4916E-01     2.7707   0.0718   105.2838
116      0.0000     0.0000E+00    0.0000E+00    1.278050E+09  0.02000  1.536E-04    0   0.5927   age138_m62            0.0000     1.4022E-01     2.8443  -0.3542   106.9067
117      0.0000     0.0000E+00    0.0000E+00    1.434000E+09  0.02000  1.328E-04    0   0.5865   age139_m62            0.0000     1.3626E-01     2.8149  -0.3731   106.8089
118      0.0000     0.0000E+00    0.0000E+00    2.500000E+09  0.02000  7.590E-05    0   0.5610   age150_m62            0.0000     1.6644E-01     3.1126  -0.6874   108.3261
119      0.0000     0.0000E+00    0.0000E+00    4.250000E+09  0.02000  4.795E-05    0   0.5407   age158_m62            0.0000     2.0230E-01     3.3840  -0.8885   109.2823
120      0.0000     0.0000E+00    0.0000E+00    6.250000E+09  0.02000  3.457E-05    0   0.5277   age166_m62            0.0000     2.2439E-01     3.5453  -0.9861   109.6391
121      0.0000     0.0000E+00    0.0000E+00    7.500000E+09  0.02000  3.009E-05    0   0.5223   age171_m62            0.0000     2.4056E-01     3.6643  -1.0000   109.9380
122      0.0000     0.0000E+00    0.0000E+00    1.000000E+10  0.02000  2.348E-05    0   0.5121   age181_m62            0.0000     2.8760E-01     4.0137  -1.0000   110.4247
123      0.0000     0.0000E+00    0.0000E+00    1.300000E+10  0.02000  1.811E-05    0   0.5047   age193_m62            0.0000     3.3277E-01     4.3188  -1.0000   110.6874
124      0.0000     0.0000E+00    0.0000E+00    1.500000E+10  0.02000  1.606E-05    0   0.4999   age201_m62            0.0000     3.6729E-01     4.5481  -1.0000   110.9116
125      0.0000     0.0000E+00    0.0000E+00    1.800000E+10  0.02000  1.365E-05    0   0.4946   age213_m62            0.0000     4.0241E-01     4.7750  -1.0000   111.0679
126      0.0000     0.0000E+00    0.0000E+00    1.000000E+06  0.05000  9.030E-03    0   0.9998   age020_m72            0.0000     1.7561E-01     2.9854   2.7589   100.9122
127      0.0000     0.0000E+00    0.0000E+00    3.160000E+06  0.05000  1.725E-02    0   0.9577   age045_m72            0.0000     1.9577E-01     3.0249   2.5757   100.3367
128      0.0000     0.0000E+00    0.0000E+00    5.010000E+06  0.05000  1.253E-02    0   0.9147   age055_m72            0.0000     1.6364E-01     2.8224   2.1176   102.1768
129      0.0000     0.0000E+00    0.0000E+00    6.610000E+06  0.05000  7.369E-03    0   0.8877   age061_m72            0.0000     1.9807E-01     3.4404   1.2260   106.1970
130      0.0000     0.0000E+00    0.0000E+00    8.710000E+06  0.05000  4.432E-03    0   0.8638   age067_m72            0.0000     1.7743E-01     3.1406   1.9216   103.9719
131      0.0000     0.0000E+00    0.0000E+00    1.000000E+07  0.05000  3.371E-03    0   0.8524   age070_m72            0.0000     2.0183E-01     3.1985   2.4679   102.4934
132      0.0000     0.0000E+00    0.0000E+00    1.445000E+07  0.05000  2.421E-03    0   0.8262   age078_m72            0.0000     2.0043E-01     3.1406   2.4606   102.1944
133      0.0000     0.0000E+00    0.0000E+00    2.512000E+07  0.05000  1.756E-03    0   0.7902   age090_m72            0.0000     1.9145E-01     3.0028   2.1057   102.5596
134      0.0000     0.0000E+00    0.0000E+00    4.000000E+07  0.05000  1.486E-03    0   0.7618   age104_m72            0.0000     2.0610E-01     2.9657   1.7280   102.5339
135      0.0000     0.0000E+00    0.0000E+00    5.500000E+07  0.05000  1.222E-03    0   0.7432   age110_m72            0.0000     2.0706E-01     2.9443   1.6179   102.5458
136      0.0000     0.0000E+00    0.0000E+00    1.015200E+08  0.05000  8.518E-04    0   0.7092   age116_m72            0.0000     2.2797E-01     2.9818   1.4451   103.1015
137      0.0000     0.0000E+00    0.0000E+00    1.609000E+08  0.05000  6.539E-04    0   0.6876   age120_m72            0.0000     2.3948E-01     2.9168   1.2698   103.3623
138      0.0000     0.0000E+00    0.0000E+00    2.861200E+08  0.05000  4.544E-04    0   0.6618   age125_m72            0.0000     2.2504E-01     2.9087   0.8217   104.5211
139      0.0000     0.0000E+00    0.0000E+00    5.088000E+08  0.05000  2.868E-04    0   0.6356   age130_m72            0.0000     1.7827E-01     2.8767   0.3255   105.6661
140      0.0000     0.0000E+00    0.0000E+00    9.047900E+08  0.05000  1.724E-04    0   0.6088   age135_m72            0.0000     1.4964E-01     2.9148  -0.3922   107.4419
141      0.0000     0.0000E+00    0.0000E+00    1.278050E+09  0.05000  1.343E-04    0   0.5924   age138_m72            0.0000     1.7779E-01     3.1856  -0.6843   108.6707
142      0.0000     0.0000E+00    0.0000E+00    1.434000E+09  0.05000  1.118E-04    0   0.5847   age139_m72            0.0000     1.8098E-01     3.2099  -0.6850   108.7946
143      0.0000     0.0000E+00    0.0000E+00    2.500000E+09  0.05000  6.239E-05    0   0.5583   age150_m72            0.0000     2.3927E-01     3.6278  -0.9648   110.1791
144      0.0000     0.0000E+00    0.0000E+00    4.250000E+09  0.05000  3.542E-05    0   0.5374   age158_m72            0.0000     4.2299E-01     4.8901  -1.0000   111.8406
145      0.0000     0.0000E+00    0.0000E+00    6.250000E+09  0.05000  2.570E-05    0   0.5242   age166_m72            0.0000     5.6653E-01     5.7430  -1.0000   112.2253
146      0.0000     0.0000E+00    0.0000E+00    7.500000E+09  0.05000  2.169E-05    0   0.5183   age171_m72            0.0000     6.0841E-01     5.9741  -1.0000   112.3359
147      0.0000     0.0000E+00    0.0000E+00    1.000000E+10  0.05000  1.660E-05    0   0.5081   age181_m72            0.0000     6.9177E-01     6.4048  -1.0000   112.2394
148      0.0000     0.0000E+00    0.0000E+00    1.300000E+10  0.05000  1.306E-05    0   0.5018   age193_m72            0.0000     8.3892E-01     7.1112  -1.0000   112.4949
149      0.0000     0.0000E+00    0.0000E+00    1.500000E+10  0.05000  1.135E-05    0   0.4972   age201_m72            0.0000     8.9891E-01     7.3757  -1.0000   112.6198
150      0.0000     0.0000E+00    0.0000E+00    1.800000E+10  0.05000  9.838E-06    0   0.4924   age213_m72            0.0000     9.6106E-01     7.6518  -1.0000   112.8019


## Synthesis Results - Average & Chains ##

# j      x_j: min, <> & last-chain-values for 1 ...  7 chains
  1      5.5327      0.4446      0.0000      0.0000      0.7033      0.0000      0.0000      3.7166      5.8625
  2      0.0000      1.6608      6.0725      0.8707      3.0383      0.0000      0.0000      0.0000      0.5424
  3     53.6198      3.7413     10.5526      0.0646     20.3431     10.0600      6.8949      9.5225      1.6158
  4      0.0000      0.1990      0.0000      0.5579      0.0000      0.0000      0.0000      0.0000      0.0000
  5      0.0000      0.3418      0.0000      0.0000      5.0182      2.3585      0.0000      0.0000      2.5423
  6      0.0000      0.2927      0.0000      0.0000      0.0000      0.4133      0.0000      0.0083      1.0047
  7      0.0000      0.2385      0.0000      0.0000      0.0000      1.3593      0.0000      0.0000      0.0000
  8      0.0000      0.2386      0.0000      2.3404      0.9130      0.0000      0.0000      0.0000      0.0000
  9      0.0000      0.3707      0.0000      0.0000      0.0000      0.0614      0.0000      0.0412      1.8695
 10      0.0000      0.2156      0.0000      2.0979      0.0000      0.0000      0.0000      0.0973      0.0000
 11      0.0000      0.3813      0.0000      0.3755      0.0000      1.0932      0.0000      0.0000      0.3657
 12      0.0000      0.4814      0.0577      0.0000      0.0000      0.0000      0.0000      0.6652      0.0000
 13      0.0000      0.1451      0.0752      0.0000      0.0000      0.0000      0.0000      0.0000      1.7285
 14      0.0000      0.1242      0.0000      0.0000      0.0000      0.0000      0.0000      0.0000      0.4226
 15      0.0000      0.1389      0.0000      0.0000      0.0000      0.0000      0.0000      0.0000      0.0000
 16      0.0000      0.5964      0.0000      0.0000      1.4358      0.0000      0.1386      0.0000      0.0000
 17      0.0000      0.7791      0.0000      0.1642      0.0000      0.0000      0.0000      1.3012      0.0000
 18      0.0000      0.9760      0.6556      0.0000      0.5210      0.0000      0.0000      0.0000      1.1749
 19      0.0000      1.5085      0.0000      0.0000      0.0000      3.0178      0.0000      0.0000      2.2084
 20      0.0000      2.4640      0.0000     11.9761      0.0000      0.9179      1.0555      3.0965      3.2974
 21      0.0000      1.9896      3.1897      1.7927      0.0000      0.6855      0.0000      0.2655      0.0000
 22      0.0000      1.7536      0.0000      0.0000      3.7025      0.1239      6.1381      0.0000      1.0202
 23      0.0000      1.4527      0.0000      0.0000      0.0000      4.0225      1.2260      3.3349      1.0230
 24      0.0000      1.8201      4.4206     10.7546      1.7105      0.0000      0.9489      0.0000      0.4298
 25      0.0000      1.7691      2.8128      0.0000      0.8474      1.6538      0.7601      0.0000      5.7174
 26      0.0000      0.3734      0.0000      0.0000      0.0000      0.7069      0.0000      0.0000      0.0000
 27      0.0000      0.2061      0.0000      0.0000      0.0000      0.0000      0.0000      0.0000      0.0000
 28      0.0000      0.4014      0.0000      0.0000      0.0000      0.6236      0.0000      4.1363      0.0000
 29      0.0000      0.3464      1.2167      0.0000      0.9708      0.0000      1.1891      0.5547      0.0000
 30      0.0007      0.3350      0.1580      2.2810      0.0000      0.0000      0.0000      0.0000      0.6462
 31      0.0000      0.1039      0.0000      0.0000      0.0000      0.0000      0.0000      0.1065      0.0000
 32      0.0000      0.2164      0.0000      0.0000      0.0000      0.0000      0.0000      0.0000      0.0000
 33      0.0001      0.4032      0.8912      0.0000      0.0000      2.5727      0.0000      0.0000      1.5374
 34      0.0000      0.5135      0.7773      0.1640      0.0000      0.0000      0.0000      1.7946      1.1997
 35      0.0000      0.3164      0.0000      0.0000      0.0000      0.3263      0.0000      1.1274      0.0000
 36      0.0000      0.1751      0.0392      0.0000      0.0000      0.0000      0.0000      0.3586      0.0000
 37      0.0000      0.2821      0.5894      0.0000      0.0000      0.0000      0.0000      0.0001      0.0000
 38      0.0000      0.1530      0.0000      0.2384      0.0000      0.0000      0.0000      0.0272      0.0000
 39      0.0000      0.1342      0.0400      0.0000      0.0000      0.0000      0.0000      0.0001      0.0000
 40      0.0000      0.6729      0.0535      0.0000      0.0000      0.0000      0.0000      0.0000      0.0000
 41      0.0000      0.7077      0.0000      0.0000      0.0000      0.2515      0.9271      0.0000      0.0000
 42      0.0000      1.0006      0.0087      0.0000      0.0000      0.0000      0.0000      0.0000      0.0000
 43      0.0000      1.0931      0.0000      0.0000      0.0000      0.0000      0.0000      0.0000      0.7604
 44      0.0000      1.8408      0.0000      0.0505      0.0000      6.8371      3.5138      2.2542      0.0000
 45      0.0000      1.8912      0.0786      4.5139      2.9728      0.0000      7.5959      9.9041      2.5966
 46      0.0839      1.5205      1.2292      1.0983      0.6329      0.2070     18.4089      0.0000      1.5389
 47      0.0396      1.8406      8.1209      0.0000      1.4798      0.0000      0.8049      0.0000      3.4977
 48      0.0000      1.5600      0.0000      4.8023      3.2573      3.9462      0.0000      7.6246      0.0000
 49      0.0000      1.6372      0.0000      2.0318      0.0000      0.2896      0.0000      0.0000      4.6350
 50      0.0000      0.9716      0.0000      0.0000      0.0000      0.0000      0.0000      0.6529      2.8118
 51      0.0000      0.3535      0.0868      3.4942      4.1875      1.6606      0.0000      0.0000      0.4083
 52      0.0000      0.2962      0.0000      0.0000      0.9428      0.0000      0.0000      0.0000      0.0000
 53      0.0000      0.2761      0.0000      0.0000      0.0083      0.0000      0.0000      0.0000      0.0000
 54      0.0000      0.4437      0.0000      0.0000      0.0000      0.0000      0.0000      0.0000      0.0000
 55      0.0000      0.5930      1.4280      0.0000      0.0000      0.0000      6.1954      0.3450      1.7318
 56      0.0000      1.2851      0.0000      0.0000      0.3579      0.0000      0.0000      6.4756      0.1026
 57      0.0000      0.3530      0.2007      0.0000      0.0000      0.0000      0.0000      0.0000      1.5232
 58      0.0000      0.7966      0.0000      3.1676      0.0000      0.0000      0.5642      0.0000      0.0000
 59      0.0000      1.5717      1.7893      0.0000      0.0000      0.1614      0.0000      0.0000      0.0000
 60      0.0000      0.6067      3.2751      0.0000      0.0000      0.0000      2.5856      0.0000      0.0000
 61      0.0000      0.3076      0.0000      0.0000      0.0000      0.0000      0.0000      0.0000      0.0000
 62      0.0000      0.2088      0.0000      0.0000      0.0000      0.0000      0.0000      0.0935      0.0000
 63      0.0000      0.4987      0.0000      0.0000      0.1747      0.0000      0.3252      0.0000      0.0000
 64      0.0000      0.3643      0.0047      0.0000      3.4855      0.0000      0.0000      0.2940      0.0000
 65      0.0000      0.7914      0.0097      0.0000      0.0000      0.9096      0.0000      0.0000      0.0000
 66      0.0000      1.7536      0.0000      3.5735      0.8753      4.8501      0.0000      0.0000      1.0771
 67      0.0000      1.5375      7.6092      0.0000      0.0000      0.8454      1.0650      0.0000      0.2501
 68      0.0062      1.9340      0.0000      0.0027      0.0000      0.2048      0.0000      2.6703      1.4302
 69      0.0470      1.3141      0.0000      0.0227      0.0000      1.6493      7.2690      0.0000      5.3564
 70      0.4452      1.9652      7.2795      1.5173      0.0000      0.0000      0.0000      4.5332      2.0566
 71      6.1713      1.1261      6.7421      1.1032      1.5276      7.4125      0.5743      0.7999      2.6539
 72      0.0000      1.3787      0.0000      1.2585      1.9825      0.8712      0.0000      0.0000      0.2958
 73     21.6528      1.0901      5.3767      0.2627      0.0000      0.0000      0.0314      0.0000      3.6944
 74     11.8833      1.1034      0.7949     12.3328      0.0000      0.2684      0.0000      0.7315      3.1630
 75      0.0000      0.8857      0.0000      0.0000      0.3144      0.3861      0.0000      3.0220      0.2204
 76      0.0000      0.2453      0.0000      0.0000      0.0000      1.0168      0.0000      0.9943      0.0000
 77      0.0000      0.4047      0.0635      7.1129      0.6045      2.8304      0.0000      0.0000      0.0000
 78      0.0000      0.3442      0.0000      0.0881      0.0000      0.0000      0.0000      0.0000      0.0000
 79      0.0000      1.4345      7.4327      0.0000      9.7361      0.0000      0.0000      2.8198      0.0000
 80      0.0000      0.5443      2.6552      0.2431      0.0000      0.0000      0.0000      0.0000      0.0000
 81      0.0000      0.4616      0.0000      2.4784      1.4667      0.0166      0.0000      0.0000      0.0000
 82      0.0000      0.6397      0.0317      0.0000      0.0000      0.0000      1.3423      0.0000      0.0000
 83      0.0000      0.8075      0.0056      0.0000      0.0000      0.0000      0.0000      0.0000      5.2371
 84      0.0000      0.6372      0.0000      0.0000      0.0000      1.1938      0.0000      0.0000      0.0000
 85      0.0000      0.4266      0.0000      0.0000      0.0000      0.0000      0.0000      2.4976      0.0000
 86      0.0000      0.2957      0.5837      0.0000      0.0000      0.0000      0.0000      0.0000      0.0000
 87      0.0000      0.1711      0.0556      0.0000      0.0000      0.0000      0.0000      0.0000      0.0211
 88      0.0000      0.1404      0.0000      0.0000      0.0000      0.6957      0.0000      0.0000      0.0000
 89      0.0000      0.2501      0.0062      0.0002      0.0000      0.0000      0.0000      0.0000      0.0000
 90      0.0000      0.6804      0.0000      0.0000      0.2432      0.0000      0.0000      0.0000      0.0000
 91      0.0000      0.8750      4.3009      0.0000      0.1331      3.8398      0.0062      0.0000      0.0000
 92      0.0000      1.3190      0.0000      0.0000      1.1942      0.0105      0.0000      1.5611      0.0000
 93      0.0000      1.4595      0.0253      0.6308      0.0000      0.6889      0.0000      0.0000      0.0000
 94      0.1130      1.3207      0.0000      0.0000      1.0573     11.6656      0.0000      0.0000      5.6179
 95      0.1434      1.0146      0.1498      0.1863      4.1204      0.0000     20.2764      1.0156      2.3684
 96      1.6022      0.8122      0.0000      1.1128      0.0000      0.0000      0.0000      0.0000      3.9032
 97      0.0000      0.7227      0.6051      0.0000      0.0000      0.0000      4.2441      0.1037      0.0000
 98      0.1007      0.7938      1.1786      1.5264      0.2923      0.0000      2.7234      0.0130      0.7559
 99      0.0000      0.6837      0.0000      0.1416      0.0000      0.0000      0.0000      0.2640      0.0000
100      0.6021      0.4143      2.6417      1.6995      1.3098      0.0000      0.0000      0.0410      3.5452
101      0.0000      0.2704      0.3524      0.0000      0.0000      0.0000      0.0000      1.6392      0.1898
102      0.0000      0.1787      0.0000      0.0000      0.0000      0.0000      0.3470      0.0000      0.1653
103      0.0000      0.3503      0.0415      0.0000      0.0000      0.0000      0.0000      0.0000      0.4330
104      0.0000      0.4548      0.6439      0.0000      0.0000      2.0313      0.0000      0.0000      0.0000
105      0.0000      1.2564      0.4125      0.7410      0.0000      0.0000      1.3794      0.0000      1.0025
106      0.0000      1.1449      0.0948      0.0000      0.4810      0.7390      0.0000      0.0000      0.0033
107      0.0000      0.7455      0.0053      0.3082      0.0000      0.0000      0.0000      1.2018      0.0000
108      0.0000      0.7545      0.0000      0.8584      0.0000      0.0000      0.0000      0.0000      0.0000
109      0.0000      0.2747      0.0000      0.0329      0.0938      0.0000      0.0000      0.0000      0.0000
110      0.0000      0.2967      0.0000      0.0000      0.0000      0.0000      2.3553      0.0000      0.0000
111      0.0000      0.2150      0.0000      0.0000      0.0000      0.0000      0.0000      0.0000      0.0000
112      0.0000      0.1437      0.0000      0.0000      0.0000      0.0000      0.0000      0.0000      0.0000
113      0.0000      0.1130      1.1082      0.0000      0.0000      0.0383      0.0000      0.0000      0.0000
114      0.0000      0.2404      0.0000      0.0000      0.0000      0.0000      0.0000      0.0000      0.0000
115      0.0000      0.6005      0.0000      0.0000      0.0000      0.0000      0.0000      0.0000      0.0000
116      0.0000      0.9624      0.0000      6.0674      2.6507      0.0000      0.0804      0.0000      0.0000
117      0.0000      0.8114      0.0936      1.7267      0.0000      1.7388      0.0000      0.0000      0.0000
118      0.0000      0.5296      0.0000      2.0396      0.0000      0.0000      0.0000      1.4061      0.0000
119      0.0000      0.4304      0.0000      0.0000      0.0864      0.0000      0.0000      0.5923      0.0000
120      0.0000      0.5524      0.2108      0.0000      1.2790      0.0000      0.0000      0.4333      0.0000
121      0.0000      0.5477      0.0000      0.8583      3.9986      8.1770      0.0000      0.0000      0.0000
122      0.0000      0.4138      0.2989      0.0000      0.0000      0.0000      0.0000      4.9359      1.4869
123      0.0000      0.3693      0.0000      0.0000      0.0000      1.6982      0.0000      2.2292      0.6220
124      0.0000      0.4173      0.0000      0.0021      0.0000      0.0000      0.0000      0.0000      0.0000
125      0.0000      0.3569      0.0000      0.0000      0.0000      0.0000      0.0000      0.0000      0.0000
126      0.0000      0.1669      0.0000      0.0000      0.0000      0.0000      0.0000      0.8699      2.0080
127      0.0000      0.1953      0.0000      0.0000      0.0000      0.0000      0.5674      0.6050      0.0000
128      0.0000      0.3928      0.0000      0.0226      0.0000      0.0030      0.0000      0.0000      0.0000
129      0.0000      0.5828      0.0000      0.3368      0.3689      0.0000      0.0000      0.6239      0.4775
130      0.0000      0.3991      0.0000      0.0000      0.0000      0.0000      0.0000      1.1384      0.0000
131      0.0000      0.2551      0.0000      0.0000      0.0000      0.0000      0.0000      0.0000      0.0000
132      0.0000      0.2477      0.0000      0.0000      1.3616      3.4982      0.0000      0.0000      0.0000
133      0.0000      0.1727      0.0062      0.0483      0.0612      0.0000      0.0000      1.7174      0.0000
134      0.0000      0.1426      0.0021      0.0000      0.0000      1.7546      0.0000      0.0000      0.0000
135      0.0000      0.1568      0.0000      0.0000      0.0000      0.0000      0.0000      0.0000      0.0000
136      0.0000      0.1742      0.0000      0.0000      0.0813      0.0000      0.0000      0.0000      0.0000
137      0.0000      0.1438      0.0002      0.0000      0.7637      0.0000      0.1499      0.0000      0.0209
138      0.0000      0.0791      0.0000      0.2540      0.0000      0.0000      0.0000      0.0000      0.0000
139      0.0000      0.2851      0.0000      0.0000      0.0000      0.1486      0.0000      0.0000      0.0000
140      0.0000      0.6843      0.0000      0.0000      0.0000      0.0000      0.0008      1.4699      0.0000
141      0.0000      0.6826      0.0000      0.0000      0.0000      0.0000      0.0000      0.0000      0.0000
142      0.0000      0.6890      3.1539      0.0000      7.2809      0.0000      0.0000      0.2328      0.0260
143      0.0000      0.3413      0.0000      0.0000      0.0000      0.0000      0.0000      0.0000      0.0000
144      0.0000      0.2566      0.2365      0.0000      0.0000      0.0000      0.7673      0.0000      0.0000
145      0.0000      0.2777      0.0000      0.0000      0.0000      0.0000      0.0000      1.3688      0.0000
146      0.0000      0.4094      0.0000      0.0000      2.5265      0.0583      0.0006      3.0786      0.1477
147      0.0000      0.0996      0.2707      0.0359      0.0000      0.0000      0.0000      0.0000      0.0000
148      0.0000      0.3457      0.0000      0.9584      0.0000      0.0000      0.0000      0.0000      0.2584
149      0.0000      0.2953      0.0000      0.0000      0.0000      0.0000      0.0000      0.0000      0.0000
150      0.0000      0.1533      0.0000      0.0289      0.0000      0.0000      0.0000      0.0000      0.0000

# j      m_j: min, <> & last-chain-values for 1 ...  7 chains
  1  2.5975E-01  2.2197E-02  0.0000E+00  0.0000E+00  4.4985E-02  0.0000E+00  0.0000E+00  1.6998E-01  2.1823E-01
  2  0.0000E+00  8.1449E-03  2.9598E-02  3.2003E-03  1.9091E-02  0.0000E+00  0.0000E+00  0.0000E+00  1.9835E-03
  3  5.7947E-01  4.2994E-02  1.2053E-01  5.5638E-04  2.9952E-01  1.1804E-01  6.6889E-02  1.0025E-01  1.3845E-02
  4  0.0000E+00  7.7696E-03  0.0000E+00  1.6327E-02  0.0000E+00  0.0000E+00  0.0000E+00  0.0000E+00  0.0000E+00
  5  0.0000E+00  1.6839E-02  0.0000E+00  0.0000E+00  3.1677E-01  1.1865E-01  0.0000E+00  0.0000E+00  9.3392E-02
  6  0.0000E+00  1.7253E-02  0.0000E+00  0.0000E+00  0.0000E+00  2.4871E-02  0.0000E+00  4.4636E-04  4.4151E-02
  7  0.0000E+00  1.7131E-02  0.0000E+00  0.0000E+00  0.0000E+00  9.9677E-02  8.2192E-08  0.0000E+00  0.0000E+00
  8  0.0000E+00  1.7886E-02  0.0000E+00  1.3147E-01  8.7677E-02  0.0000E+00  0.0000E+00  0.0000E+00  0.0000E+00
  9  0.0000E+00  2.8138E-02  0.0000E+00  0.0000E+00  0.0000E+00  4.7595E-03  0.0000E+00  2.8639E-03  1.0582E-01
 10  0.0000E+00  1.8332E-02  0.0000E+00  1.3367E-01  0.0000E+00  0.0000E+00  0.0000E+00  7.5789E-03  0.0000E+00
 11  0.0000E+00  3.5136E-02  0.0000E+00  2.5931E-02  0.0000E+00  1.0285E-01  0.0000E+00  0.0000E+00  2.5121E-02
 12  0.0000E+00  6.6156E-02  7.8850E-03  0.0000E+00  0.0000E+00  0.0000E+00  0.0000E+00  8.3744E-02  0.0000E+00
 13  0.0000E+00  2.4636E-02  1.2681E-02  0.0000E+00  0.0000E+00  0.0000E+00  0.0000E+00  0.0000E+00  2.1877E-01
 14  0.0000E+00  2.7859E-02  0.0000E+00  0.0000E+00  0.0000E+00  0.0000E+00  0.0000E+00  0.0000E+00  7.0661E-02
 15  0.0000E+00  4.3952E-02  0.0000E+00  0.0000E+00  0.0000E+00  0.0000E+00  0.0000E+00  0.0000E+00  0.0000E+00
 16  0.0000E+00  2.1814E-01  0.0000E+00  0.0000E+00  6.7290E-01  0.0000E+00  4.2788E-02  0.0000E+00  0.0000E+00
 17  0.0000E+00  2.9597E-01  0.0000E+00  4.6757E-02  0.0000E+00  0.0000E+00  0.0000E+00  4.5284E-01  0.0000E+00
 18  0.0000E+00  5.8217E-01  3.8866E-01  0.0000E+00  3.9812E-01  0.0000E+00  0.0000E+00  0.0000E+00  5.2252E-01
 19  0.0000E+00  1.2580E+00  0.0000E+00  0.0000E+00  0.0000E+00  2.5697E+00  0.0000E+00  0.0000E+00  1.3732E+00
 20  0.0000E+00  2.7780E+00  0.0000E+00  1.0120E+01  0.0000E+00  1.0567E+00  1.0046E+00  3.1983E+00  2.7719E+00
 21  0.0000E+00  2.5708E+00  4.0961E+00  1.7361E+00  0.0000E+00  9.0437E-01  0.0000E+00  3.1431E-01  0.0000E+00
 22  0.0000E+00  2.8706E+00  0.0000E+00  0.0000E+00  7.7655E+00  2.0705E-01  8.4823E+00  0.0000E+00  1.2451E+00
 23  0.0000E+00  2.9330E+00  0.0000E+00  0.0000E+00  0.0000E+00  8.2918E+00  2.0896E+00  6.1682E+00  1.5400E+00
 24  0.0000E+00  4.1286E+00  9.9660E+00  1.8284E+01  4.9711E+00  0.0000E+00  1.8170E+00  0.0000E+00  7.2698E-01
 25  0.0000E+00  4.6565E+00  7.3586E+00  0.0000E+00  2.8577E+00  4.4446E+00  1.6889E+00  0.0000E+00  1.1221E+01
 26  0.0000E+00  1.8263E-02  0.0000E+00  0.0000E+00  0.0000E+00  3.5298E-02  0.0000E+00  0.0000E+00  0.0000E+00
 27  0.0000E+00  1.8641E-03  0.0000E+00  0.0000E+00  0.0000E+00  0.0000E+00  0.0000E+00  0.0000E+00  0.0000E+00
 28  0.0000E+00  7.3246E-03  0.0000E+00  0.0000E+00  0.0000E+00  1.1619E-02  0.0000E+00  6.9149E-02  0.0000E+00
 29  0.0000E+00  1.0816E-02  3.7758E-02  0.0000E+00  3.8837E-02  0.0000E+00  3.1345E-02  1.5866E-02  0.0000E+00
 30  2.4161E-05  1.2995E-02  6.0906E-03  6.6317E-02  0.0000E+00  0.0000E+00  0.0000E+00  0.0000E+00  1.8689E-02
 31  0.0000E+00  4.6185E-03  0.0000E+00  0.0000E+00  0.0000E+00  0.0000E+00  0.0000E+00  4.3369E-03  0.0000E+00
 32  0.0000E+00  9.3024E-03  0.0000E+00  0.0000E+00  0.0000E+00  0.0000E+00  0.0000E+00  0.0000E+00  0.0000E+00
 33  3.2419E-06  2.3010E-02  5.0544E-02  0.0000E+00  0.0000E+00  1.4989E-01  0.0000E+00  0.0000E+00  6.5414E-02
 34  0.0000E+00  3.4104E-02  5.1307E-02  8.1618E-03  0.0000E+00  0.0000E+00  0.0000E+00  1.0918E-01  5.9406E-02
 35  0.0000E+00  2.5134E-02  0.0000E+00  0.0000E+00  0.0000E+00  2.6473E-02  8.4814E-07  8.2055E-02  0.0000E+00
 36  0.0000E+00  1.6847E-02  3.7475E-03  0.0000E+00  0.0000E+00  0.0000E+00  0.0000E+00  3.1615E-02  0.0000E+00
 37  0.0000E+00  3.1972E-02  6.6378E-02  0.0000E+00  0.0000E+00  0.0000E+00  0.0000E+00  5.3780E-06  0.0000E+00
 38  0.0000E+00  2.2549E-02  0.0000E+00  2.6331E-02  0.0000E+00  0.0000E+00  0.0000E+00  3.6715E-03  0.0000E+00
 39  0.0000E+00  2.7966E-02  8.2903E-03  0.0000E+00  0.0000E+00  0.0000E+00  0.0000E+00  1.5221E-05  0.0000E+00
 40  0.0000E+00  2.0343E-01  1.6067E-02  0.0000E+00  0.0000E+00  0.0000E+00  0.0000E+00  0.0000E+00  0.0000E+00
 41  0.0000E+00  2.6003E-01  0.0000E+00  0.0000E+00  0.0000E+00  9.4328E-02  2.8756E-01  0.0000E+00  0.0000E+00
 42  0.0000E+00  4.0047E-01  3.4693E-03  0.0000E+00  0.0000E+00  0.0000E+00  0.0000E+00  0.0000E+00  0.0000E+00
 43  0.0000E+00  6.2835E-01  0.0000E+00  0.0000E+00  0.0000E+00  0.0000E+00  0.0000E+00  0.0000E+00  3.2593E-01
 44  0.0000E+00  1.5508E+00  0.0000E+00  3.1866E-02  0.0000E+00  5.8810E+00  2.4989E+00  1.7397E+00  0.0000E+00
 45  0.0000E+00  2.1056E+00  8.6933E-02  3.7667E+00  4.2405E+00  0.0000E+00  7.1391E+00  1.0102E+01  2.1555E+00
 46  1.0171E-01  1.9599E+00  1.5747E+00  1.0610E+00  1.0452E+00  2.7243E-01  2.0031E+01  1.7312E-06  1.4790E+00
 47  6.0488E-02  2.9906E+00  1.3114E+01  0.0000E+00  3.0806E+00  0.0000E+00  1.1040E+00  0.0000E+00  4.2374E+00
 48  0.0000E+00  3.0574E+00  0.0000E+00  7.0543E+00  8.1794E+00  7.8967E+00  0.0000E+00  1.3690E+01  0.0000E+00
 49  0.0000E+00  3.6254E+00  0.0000E+00  3.3723E+00  0.0000E+00  6.5471E-01  0.0000E+00  0.0000E+00  7.6527E+00
 50  0.0000E+00  2.5043E+00  0.0000E+00  0.0000E+00  0.0000E+00  0.0000E+00  0.0000E+00  1.5418E+00  5.4040E+00
 51  0.0000E+00  1.2864E-02  3.1390E-03  9.5298E-02  1.9523E-01  6.1699E-02  0.0000E+00  0.0000E+00  1.1079E-02
 52  0.0000E+00  2.3611E-03  0.0000E+00  0.0000E+00  9.6297E-03  0.0000E+00  0.0000E+00  0.0000E+00  0.0000E+00
 53  0.0000E+00  3.7049E-03  0.0000E+00  0.0000E+00  1.4229E-04  0.0000E+00  0.0000E+00  0.0000E+00  0.0000E+00
 54  0.0000E+00  4.8771E-03  0.0000E+00  0.0000E+00  0.0000E+00  0.0000E+00  0.0000E+00  0.0000E+00  0.0000E+00
 55  0.0000E+00  8.8514E-03  2.1187E-02  0.0000E+00  0.0000E+00  0.0000E+00  7.8072E-02  4.7185E-03  1.9275E-02
 56  0.0000E+00  2.4947E-02  0.0000E+00  0.0000E+00  8.9027E-03  0.0000E+00  0.0000E+00  1.1517E-01  1.4849E-03
 57  0.0000E+00  1.2407E-02  7.0117E-03  0.0000E+00  0.0000E+00  0.0000E+00  0.0000E+00  0.0000E+00  3.9917E-02
 58  0.0000E+00  3.4573E-02  0.0000E+00  1.0304E-01  0.0000E+00  0.0000E+00  2.0671E-02  0.0000E+00  0.0000E+00
 59  0.0000E+00  8.6186E-02  9.7514E-02  0.0000E+00  0.0000E+00  9.0363E-03  4.6938E-08  0.0000E+00  0.0000E+00
 60  0.0000E+00  3.9980E-02  2.1451E-01  0.0000E+00  0.0000E+00  0.0000E+00  1.4384E-01  0.0000E+00  0.0000E+00
 61  0.0000E+00  2.6409E-02  0.0000E+00  0.0000E+00  0.0000E+00  0.0000E+00  0.0000E+00  0.0000E+00  0.0000E+00
 62  0.0000E+00  2.1690E-02  0.0000E+00  0.0000E+00  0.0000E+00  0.0000E+00  0.0000E+00  8.8944E-03  0.0000E+00
 63  0.0000E+00  6.9158E-02  0.0000E+00  0.0000E+00  3.1038E-02  0.0000E+00  3.8068E-02  0.0000E+00  0.0000E+00
 64  0.0000E+00  7.9566E-02  1.0286E-03  0.0000E+00  9.7545E-01  0.0000E+00  3.5451E-08  5.8822E-02  0.0000E+00
 65  0.0000E+00  2.4895E-01  3.0379E-03  0.0000E+00  0.0000E+00  2.9213E-01  0.0000E+00  0.0000E+00  0.0000E+00
 66  0.0000E+00  5.1699E-01  0.0000E+00  7.8960E-01  3.3062E-01  1.4599E+00  0.0000E+00  0.0000E+00  2.3677E-01
 67  0.0000E+00  6.6912E-01  3.2912E+00  0.0000E+00  0.0000E+00  3.7566E-01  3.9127E-01  0.0000E+00  8.1145E-02
 68  3.9809E-03  1.3292E+00  0.0000E+00  1.3837E-03  0.0000E+00  1.4369E-01  0.0000E+00  1.6814E+00  7.3289E-01
 69  4.8421E-02  1.4388E+00  0.0000E+00  1.8627E-02  0.0000E+00  1.8438E+00  6.7186E+00  0.0000E+00  4.3726E+00
 70  5.9715E-01  2.8029E+00  1.0319E+01  1.6220E+00  0.0000E+00  0.0000E+00  0.0000E+00  5.9233E+00  2.1871E+00
 71  9.3999E+00  1.8239E+00  1.0853E+01  1.3393E+00  3.1702E+00  1.2258E+01  7.8521E-01  1.1868E+00  3.2051E+00
 72  0.0000E+00  2.8242E+00  0.0000E+00  1.9322E+00  5.2032E+00  1.8221E+00  0.0000E+00  0.0000E+00  4.5181E-01
 73  5.1554E+01  2.7600E+00  1.3529E+01  4.9848E-01  0.0000E+00  0.0000E+00  6.7101E-02  0.0000E+00  6.9741E+00
 74  3.1623E+01  3.1223E+00  2.2356E+00  2.6157E+01  0.0000E+00  7.7548E-01  0.0000E+00  1.8964E+00  6.6735E+00
 75  0.0000E+00  2.9096E+00  0.0000E+00  0.0000E+00  1.3232E+00  1.2950E+00  0.0000E+00  9.0947E+00  5.3995E-01
 76  0.0000E+00  7.8102E-03  0.0000E+00  0.0000E+00  0.0000E+00  3.3057E-02  0.0000E+00  2.9005E-02  0.0000E+00
 77  0.0000E+00  5.1964E-03  8.0998E-04  6.8458E-02  9.9457E-03  3.7109E-02  0.0000E+00  0.0000E+00  0.0000E+00
 78  0.0000E+00  4.5396E-03  0.0000E+00  8.7045E-04  0.0000E+00  0.0000E+00  0.0000E+00  0.0000E+00  0.0000E+00
 79  0.0000E+00  1.4543E-02  7.4891E-02  0.0000E+00  1.2646E-01  0.0000E+00  0.0000E+00  2.6189E-02  0.0000E+00
 80  0.0000E+00  8.3301E-03  4.0387E-02  2.7886E-03  0.0000E+00  0.0000E+00  0.0000E+00  0.0000E+00  0.0000E+00
 81  0.0000E+00  1.0479E-02  0.0000E+00  4.2168E-02  4.2658E-02  3.8548E-04  0.0000E+00  0.0000E+00  0.0000E+00
 82  0.0000E+00  2.0199E-02  9.9584E-04  0.0000E+00  0.0000E+00  0.0000E+00  3.5778E-02  0.0000E+00  0.0000E+00
 83  0.0000E+00  3.3695E-02  2.3270E-04  0.0000E+00  0.0000E+00  0.0000E+00  0.0000E+00  0.0000E+00  1.6293E-01
 84  0.0000E+00  3.5430E-02  0.0000E+00  0.0000E+00  0.0000E+00  6.7778E-02  0.0000E+00  0.0000E+00  0.0000E+00
 85  0.0000E+00  2.9123E-02  0.0000E+00  0.0000E+00  0.0000E+00  0.0000E+00  0.0000E+00  1.5620E-01  0.0000E+00
 86  0.0000E+00  2.6520E-02  5.2031E-02  0.0000E+00  0.0000E+00  0.0000E+00  0.0000E+00  0.0000E+00  0.0000E+00
 87  0.0000E+00  1.9093E-02  6.1711E-03  0.0000E+00  0.0000E+00  0.0000E+00  0.0000E+00  0.0000E+00  1.7590E-03
 88  0.0000E+00  2.1818E-02  0.0000E+00  0.0000E+00  0.0000E+00  1.1038E-01  0.0000E+00  0.0000E+00  0.0000E+00
 89  0.0000E+00  5.8213E-02  1.4292E-03  3.1229E-05  0.0000E+00  0.0000E+00  0.0000E+00  0.0000E+00  0.0000E+00
 90  0.0000E+00  2.3234E-01  0.0000E+00  0.0000E+00  1.0640E-01  0.0000E+00  0.0000E+00  0.0000E+00  0.0000E+00
 91  0.0000E+00  2.9166E-01  1.4248E+00  0.0000E+00  5.6825E-02  1.3068E+00  1.7416E-03  0.0000E+00  0.0000E+00
 92  0.0000E+00  6.1888E-01  0.0000E+00  0.0000E+00  7.1786E-01  5.0113E-03  0.0000E+00  6.7102E-01  0.0000E+00
 93  0.0000E+00  1.1600E+00  1.9979E-02  3.7580E-01  0.0000E+00  5.5905E-01  0.0000E+00  0.0000E+00  0.0000E+00
 94  1.4369E-01  1.7863E+00  0.0000E+00  0.0000E+00  1.8324E+00  1.6111E+01  0.0000E+00  0.0000E+00  5.6656E+00
 95  2.2316E-01  1.6789E+00  2.4636E-01  2.3112E-01  8.7362E+00  0.0000E+00  2.8326E+01  1.5397E+00  2.9223E+00
 96  2.9499E+00  1.5902E+00  0.0000E+00  1.6330E+00  0.0000E+00  0.0000E+00  0.0000E+00  0.0000E+00  5.6979E+00
 97  0.0000E+00  1.7420E+00  1.4496E+00  0.0000E+00  0.0000E+00  0.0000E+00  8.6358E+00  2.2905E-01  0.0000E+00
 98  2.8309E-01  2.3734E+00  3.5023E+00  3.4206E+00  1.1196E+00  0.0000E+00  6.8736E+00  3.5504E-02  1.6850E+00
 99  0.0000E+00  2.3129E+00  0.0000E+00  3.5911E-01  0.0000E+00  0.0000E+00  0.0000E+00  8.1823E-01  0.0000E+00
100  2.1727E+00  1.5896E+00  1.0075E+01  4.8880E+00  6.4397E+00  0.0000E+00  0.0000E+00  1.4402E-01  1.0143E+01
101  0.0000E+00  5.4975E-03  7.1201E-03  0.0000E+00  0.0000E+00  0.0000E+00  0.0000E+00  3.0532E-02  2.8765E-03
102  0.0000E+00  1.8478E-03  0.0000E+00  0.0000E+00  0.0000E+00  0.0000E+00  3.0285E-03  0.0000E+00  1.2739E-03
103  0.0000E+00  3.5723E-03  4.2060E-04  0.0000E+00  0.0000E+00  0.0000E+00  0.0000E+00  0.0000E+00  3.2927E-03
104  0.0000E+00  5.4951E-03  7.7320E-03  0.0000E+00  0.0000E+00  2.5060E-02  0.0000E+00  0.0000E+00  0.0000E+00
105  0.0000E+00  2.6326E-02  8.5912E-03  1.1638E-02  0.0000E+00  0.0000E+00  2.4399E-02  0.0000E+00  1.5663E-02
106  0.0000E+00  2.6570E-02  2.1861E-03  0.0000E+00  1.4301E-02  1.7511E-02  0.0000E+00  0.0000E+00  5.7554E-05
107  0.0000E+00  2.3406E-02  1.6535E-04  7.2530E-03  0.0000E+00  0.0000E+00  0.0000E+00  3.4568E-02  0.0000E+00
108  0.0000E+00  3.8078E-02  0.0000E+00  3.2469E-02  0.0000E+00  0.0000E+00  0.0000E+00  0.0000E+00  0.0000E+00
109  0.0000E+00  1.7031E-02  0.0000E+00  1.5276E-03  7.4543E-03  0.0000E+00  0.0000E+00  0.0000E+00  0.0000E+00
110  0.0000E+00  2.2346E-02  0.0000E+00  0.0000E+00  0.0000E+00  0.0000E+00  1.4976E-01  0.0000E+00  0.0000E+00
111  0.0000E+00  2.2454E-02  0.0000E+00  0.0000E+00  0.0000E+00  0.0000E+00  0.0000E+00  0.0000E+00  0.0000E+00
112  0.0000E+00  1.9050E-02  0.0000E+00  0.0000E+00  0.0000E+00  0.0000E+00  3.1835E-08  0.0000E+00  0.0000E+00
113  0.0000E+00  2.0016E-02  1.9518E-01  0.0000E+00  0.0000E+00  6.9274E-03  0.0000E+00  0.0000E+00  0.0000E+00
114  0.0000E+00  6.4111E-02  0.0000E+00  0.0000E+00  0.0000E+00  0.0000E+00  0.0000E+00  0.0000E+00  0.0000E+00
115  0.0000E+00  2.4755E-01  0.0000E+00  0.0000E+00  0.0000E+00  0.0000E+00  0.0000E+00  0.0000E+00  0.0000E+00
116  0.0000E+00  5.1486E-01  0.0000E+00  2.4329E+00  1.8168E+00  0.0000E+00  3.6329E-02  0.0000E+00  0.0000E+00
117  0.0000E+00  4.9680E-01  5.6967E-02  7.9243E-01  0.0000E+00  1.0871E+00  0.0000E+00  0.0000E+00  0.0000E+00
118  0.0000E+00  5.4267E-01  0.0000E+00  1.5665E+00  0.0000E+00  0.0000E+00  0.0000E+00  1.3200E+00  0.0000E+00
119  0.0000E+00  6.7286E-01  0.0000E+00  0.0000E+00  1.7313E-01  0.0000E+00  0.0000E+00  8.4836E-01  0.0000E+00
120  0.0000E+00  1.1691E+00  4.4337E-01  0.0000E+00  3.4680E+00  0.0000E+00  0.0000E+00  8.4006E-01  0.0000E+00
121  0.0000E+00  1.3182E+00  0.0000E+00  1.5481E+00  1.2329E+01  2.0092E+01  0.0000E+00  0.0000E+00  0.0000E+00
122  0.0000E+00  1.2513E+00  8.9828E-01  0.0000E+00  0.0000E+00  0.0000E+00  0.0000E+00  1.3673E+01  3.3522E+00
123  0.0000E+00  1.4269E+00  0.0000E+00  0.0000E+00  0.0000E+00  6.6993E+00  0.0000E+00  7.8907E+00  1.7919E+00
124  0.0000E+00  1.8010E+00  0.0000E+00  6.6605E-03  0.0000E+00  0.0000E+00  0.0000E+00  0.0000E+00  0.0000E+00
125  0.0000E+00  1.7931E+00  0.0000E+00  0.0000E+00  0.0000E+00  0.0000E+00  0.0000E+00  0.0000E+00  0.0000E+00
126  0.0000E+00  2.5622E-03  0.0000E+00  0.0000E+00  0.0000E+00  0.0000E+00  0.0000E+00  1.2234E-02  2.2982E-02
127  0.0000E+00  1.5035E-03  0.0000E+00  0.0000E+00  0.0000E+00  0.0000E+00  3.6867E-03  4.2658E-03  0.0000E+00
128  0.0000E+00  3.9751E-03  0.0000E+00  1.7112E-04  0.0000E+00  3.0607E-05  0.0000E+00  0.0000E+00  0.0000E+00
129  0.0000E+00  9.7336E-03  0.0000E+00  4.2158E-03  7.8947E-03  0.0000E+00  0.0000E+00  9.5466E-03  5.9459E-03
130  0.0000E+00  1.0784E-02  0.0000E+00  0.0000E+00  0.0000E+00  0.0000E+00  0.0000E+00  2.8180E-02  0.0000E+00
131  0.0000E+00  8.9424E-03  0.0000E+00  0.0000E+00  0.0000E+00  0.0000E+00  0.0000E+00  0.0000E+00  0.0000E+00
132  0.0000E+00  1.1719E-02  0.0000E+00  0.0000E+00  8.2540E-02  1.6899E-01  0.0000E+00  0.0000E+00  0.0000E+00
133  0.0000E+00  1.0777E-02  3.8165E-04  2.2576E-03  4.8918E-03  0.0000E+00  2.2468E-07  9.8160E-02  0.0000E+00
134  0.0000E+00  1.0135E-02  1.4551E-04  0.0000E+00  0.0000E+00  1.2733E-01  0.0000E+00  0.0000E+00  0.0000E+00
135  0.0000E+00  1.3222E-02  0.0000E+00  0.0000E+00  0.0000E+00  0.0000E+00  0.0000E+00  0.0000E+00  0.0000E+00
136  0.0000E+00  2.0113E-02  0.0000E+00  0.0000E+00  1.2027E-02  0.0000E+00  0.0000E+00  0.0000E+00  0.0000E+00
137  0.0000E+00  2.0969E-02  2.3443E-05  0.0000E+00  1.4265E-01  0.0000E+00  1.8442E-02  0.0000E+00  2.2744E-03
138  0.0000E+00  1.5968E-02  0.0000E+00  3.8442E-02  0.0000E+00  0.0000E+00  0.0000E+00  0.0000E+00  0.0000E+00
139  0.0000E+00  8.7614E-02  0.0000E+00  0.0000E+00  0.0000E+00  4.6609E-02  0.0000E+00  0.0000E+00  0.0000E+00
140  0.0000E+00  3.3502E-01  0.0000E+00  0.0000E+00  0.0000E+00  0.0000E+00  3.3558E-04  6.5930E-01  0.0000E+00
141  0.0000E+00  4.1746E-01  0.0000E+00  0.0000E+00  0.0000E+00  0.0000E+00  0.0000E+00  0.0000E+00  0.0000E+00
142  0.0000E+00  4.9961E-01  2.2728E+00  0.0000E+00  6.7639E+00  0.0000E+00  0.0000E+00  1.5463E-01  1.4078E-02
143  0.0000E+00  4.2347E-01  0.0000E+00  0.0000E+00  0.0000E+00  0.0000E+00  0.0000E+00  0.0000E+00  0.0000E+00
144  0.0000E+00  5.3966E-01  4.9433E-01  0.0000E+00  0.0000E+00  0.0000E+00  1.3626E+00  0.0000E+00  0.0000E+00
145  0.0000E+00  7.8544E-01  0.0000E+00  0.0000E+00  0.0000E+00  0.0000E+00  0.0000E+00  3.5461E+00  0.0000E+00
146  0.0000E+00  1.3564E+00  0.0000E+00  0.0000E+00  1.0724E+01  1.9709E-01  1.6397E-03  9.3437E+00  3.6490E-01
147  0.0000E+00  4.2263E-01  1.1415E+00  1.1430E-01  0.0000E+00  0.0000E+00  0.0000E+00  0.0000E+00  0.0000E+00
148  0.0000E+00  1.8414E+00  0.0000E+00  3.8264E+00  0.0000E+00  0.0000E+00  0.0000E+00  0.0000E+00  1.0264E+00
149  0.0000E+00  1.7932E+00  0.0000E+00  0.0000E+00  0.0000E+00  0.0000E+00  0.0000E+00  0.0000E+00  0.0000E+00
150  0.0000E+00  1.0634E+00  0.0000E+00  1.5042E-01  0.0000E+00  0.0000E+00  0.0000E+00  0.0000E+00  0.0000E+00

# AV, chi2 & Mass for <> & i_chain = 1 ...  7 solutions
AV       0.2130      0.3097      0.1713      0.2663      0.4669      0.2986     -0.0438      0.3773      0.2923
chi2 7.4244E-02  9.2877E-02  8.6634E-02  8.7167E-02  8.7389E-02  8.7757E-02  8.5337E-02  8.6383E-02  8.5070E-02
Mass 5.2950E-10  5.4578E-10  4.8156E-10  6.9884E-10  4.9455E-10  5.2895E-10  4.6225E-10  6.3528E-10  7.2004E-10
 154.44                                  [v0_min (km/s) before EX0s...]
  88.06                                  [vd_min (km/s) before EX0s...]


## Synthetic spectrum (Best Model) ##l_obs f_obs f_syn wei
 1275    [Nl_obs]
 4826.00    1.15393   1.06785    8.666
 4827.00    1.13078   1.06435    8.843
 4828.00    1.04619   1.06503    9.558
 4829.00    1.09391   1.06779    9.142
 4830.00    1.10767   1.06979    9.028
 4831.00    1.18961   1.06966    8.406
 4832.00    1.15418   1.06802    8.664
 4833.00    1.10941   1.06592    9.014
 4834.00    1.16603   1.06363    8.576
 4835.00    1.09359   1.06196    9.144
 4836.00    1.13270   1.06203    8.828
 4837.00    1.19035   1.06368    8.401
 4838.00    1.15392   1.06565    8.666
 4839.00    1.09597   1.06657    9.124
 4840.00    0.99721   1.06579   10.028
 4841.00    1.04180   1.06338    9.599
 4842.00    1.08481   1.05989    9.218
 4843.00    1.16909   1.05635    8.554
 4844.00    1.08811   1.05389    9.190
 4845.00    1.04537   1.05328    9.566
 4846.00    1.07161   1.05447    9.332
 4847.00    1.14893   1.05690    8.704
 4848.00    1.16802   1.05952    8.561
 4849.00    1.05138   1.06053    9.511
 4850.00    1.10706   1.05914    9.033
 4851.00    1.05834   1.05685    9.449
 4852.00    1.03744   1.05560    9.639
 4853.00    1.07704   1.05517    9.285
 4854.00    1.03149   1.05353    9.695
 4855.00    1.06920   1.04853    9.353
 4856.00    1.05332   1.03919    9.494
 4857.00    1.03906   1.02612    9.624
 4858.00    0.99896   1.01106   10.010
 4859.00    0.99938   0.99428   10.006
 4860.00    0.96326   0.97200   10.381
 4861.00    1.01052   0.93776    9.896
 4862.00    0.92358   0.89007   10.827
 4863.00    0.89924   0.84026   11.120
 4864.00    0.78115   0.81019   11.256
 4865.00    0.81692   0.81684   11.256
 4866.00    0.87393   0.85515   11.256
 4867.00    1.01347   0.90480    9.867
 4868.00    1.04760   0.94920    9.546
 4869.00    1.06427   0.98185    9.396
 4870.00    1.02160   1.00261    9.789
 4871.00    1.06980   1.01263    9.348
 4872.00    0.98499   1.01309   10.152
 4873.00    1.07037   1.00692    9.343
 4874.00    1.03888   1.00025    9.626
 4875.00    1.04920   0.99994    9.531
 4876.00    0.94089   1.00767   10.628
 4877.00    1.01824   1.01887    9.821
 4878.00    1.03429   1.02801    9.668
 4879.00    1.03313   1.03315    9.679
 4880.00    1.00863   1.03617    9.914
 4881.00    1.04730   1.03974    9.548
 4882.00    1.09900   1.04423    9.099
 4883.00    1.06653   1.04770    9.376
 4884.00    1.04762   1.04834    9.545
 4885.00    1.03969   1.04625    9.618
 4886.00    0.98305   1.04267   10.172
 4887.00    1.07125   1.03868    9.335
 4888.00    0.97738   1.03497   10.231
 4889.00    0.97853   1.03179   10.219
 4890.00    0.98539   1.02847   10.148
 4891.00    1.01285   1.02347    9.873
 4892.00    1.02428   1.01631    9.763
 4893.00    1.03655   1.01014    9.647
 4894.00    1.00123   1.01082    9.988
 4895.00    0.96162   1.02203   10.399
 4896.00    1.03352   1.04068    9.676
 4897.00    1.09247   1.05928    9.154
 4898.00    1.05099   1.07231    9.515
 4899.00    1.05262   1.07829    9.500
 4900.00    1.03410   1.07831    9.670
 4901.00    1.06353   1.07428    9.403
 4902.00    1.06725   1.06866    9.370
 4903.00    1.05754   1.06377    9.456
 4904.00    1.04664   1.06054    9.554
 4905.00    1.01108   1.05825    9.890
 4906.00    0.96771   1.05682   10.334
 4907.00    1.05035   1.05807    9.521
 4908.00    1.09325   1.06235    9.147
 4909.00    1.06936   1.06655    9.351
 4910.00    1.01888   1.06718    9.815
 4911.00    0.98958   1.06317   10.105
 4912.00    0.99232   1.05660   10.077
 4913.00    1.06424   1.05088    9.396
 4914.00    1.04578   1.04871    9.562
 4915.00    1.04540   1.05019    9.566
 4916.00    1.03068   1.05354    9.702
 4917.00    1.02144   1.05684    9.790
 4918.00    1.07390   1.05745    9.312
 4919.00    1.08415   1.05189    9.224
 4920.00    1.01301   1.03807    9.872
 4921.00    0.95568   1.01785   10.464
 4922.00    0.92726   0.99752   10.784
 4923.00    0.96761   0.98467   10.335
 4924.00    0.97156   0.98319   10.293
 4925.00    0.94525   0.99085   10.579
 4926.00    0.97096   1.00236   10.299
 4927.00    0.99577   1.01462   10.042
 4928.00    1.05775   1.02718    9.454
 4929.00    1.04590   1.03958    9.561
 4930.00    1.00925   1.05088    9.908
 4931.00    1.03056   1.05979    9.703
 4932.00    1.04626   1.06523    9.558
 4933.00    1.06312   1.06609    9.406
 4934.00    1.03176   1.06133    9.692
 4935.00    1.03561   1.05157    9.656
 4936.00    1.00230   1.04033    9.977
 4937.00    1.01334   1.03265    9.868
 4938.00    1.02059   1.03074    9.798
 4939.00    0.96771   1.03079   10.334
 4940.00    0.94529   1.02834   10.579
 4941.00    0.99862   1.02451   10.014
 4942.00    1.00473   1.02430    9.953
 4943.00    0.97467   1.03099   10.260
 4944.00    0.96705   1.04266   10.341
 4945.00    1.04806   1.05418    9.541
 4946.00    1.04112   1.06178    9.605
 4947.00    1.07557   1.06456    9.297
 4948.00    1.03571   1.06437    9.655
 4949.00    1.04419   1.06408    9.577
 4950.00    1.05087   1.06548    9.516
 4951.00    1.09542   1.06857    9.129
 4952.00    1.06987   1.07167    9.347
 4953.00    1.12719   1.07308    8.872
 4954.00    1.05051   1.07228    9.519
 4955.00    1.04773   1.06939    9.544
 4956.00    1.07562   1.06407    9.297
 4957.00    1.03924   1.05472    9.622
 4958.00    1.03644   1.03947    9.648
 4959.00    1.01821   1.02052    9.821
 4960.00    0.98273   1.00624   10.176
 4961.00    1.00275   1.00464    9.973
 4962.00    1.00997   1.01605    9.901
 4963.00    1.02430   1.03308    9.763
 4964.00    1.07349   1.04746    9.315
 4965.00    1.10679   1.05498    9.035
 4966.00    1.05587   1.05570    9.471
 4967.00    1.02109   1.05195    9.793
 4968.00    1.00506   1.04641    9.950
 4969.00    1.01895   1.04168    9.814
 4970.00    1.02014   1.03911    9.803
 4971.00    1.01155   1.03882    9.886
 4972.00    1.08121   1.04069    9.249
 4973.00    1.10047   1.04437    9.087
 4974.00    1.01413   1.04914    9.861
 4975.00    1.00858   1.05400    9.915
 4976.00    1.05707   1.05789    9.460
 4977.00    1.06486   1.05971    9.391
 4978.00    1.05252   1.05896    9.501
 4979.00    1.01910   1.05576    9.813
 4980.00    1.05839   1.05074    9.448
 4981.00    1.02590   1.04451    9.748
 4982.00    1.05446   1.03639    9.484
 4983.00    1.07517   1.02539    9.301
 4984.00    1.01586   1.01202    9.844
 4985.00    0.97806   0.99970   10.224
 4986.00    0.94067   0.99300   10.631
 4987.00    0.95992   0.99465   10.418
 4988.00    0.97113   1.00387   10.297
 4989.00    0.99849   1.01653   10.015
 4990.00    1.01289   1.02763    9.873
 4991.00    1.00468   1.03351    9.953
 4992.00    0.97366   1.03373   10.271
 4993.00    1.00850   1.03080    9.916
 4994.00    1.04744   1.02844    9.547
 4995.00    1.00352   1.02856    9.965
 4996.00    1.02943   1.03071    9.714
 4997.00    1.01491   1.03400    9.853
 4998.00    1.06621   1.03748    9.379
 4999.00    1.07484   1.03886    9.304
 5000.00    1.05746   1.03460    9.457
 5001.00    1.05598   1.02218    9.470
 5002.00    1.05168   1.00464    9.509
 5003.00    1.02114   0.99378    9.793
 5004.00    0.98440   0.99363   10.159
 5005.00    0.94709   0.99995   10.559
 5006.00    1.00201   1.00572    9.980
 5007.00    1.03240   1.00619    9.686
 5008.00    1.04847   1.00217    9.538
 5009.00    1.05340   0.99866    9.493
 5010.00    0.98028   1.00005   10.201
 5011.00    0.98762   1.00616   10.125
 5012.00    1.01479   1.01243    9.854
 5013.00    1.01711   1.01325    9.832
 5014.00    1.02699   1.00701    9.737
 5015.00    0.99185   0.99680   10.082
 5016.00    0.98077   0.98776   10.196
 5017.00    0.99196   0.98326   10.081
 5018.00    0.94181   0.98337   10.618
 5019.00    0.95813   0.98601   10.437
 5020.00    0.99512   0.98922   10.049
 5021.00    0.99569   0.99348   10.043
 5022.00    0.96240   0.99949   10.391
 5023.00    1.00792   1.00594    9.921
 5024.00    1.03870   1.01111    9.627
 5025.00    1.03083   1.01464    9.701
 5026.00    1.01948   1.01794    9.809
 5027.00    1.02863   1.02179    9.722
 5028.00    1.00380   1.02488    9.962
 5029.00    0.98962   1.02608   10.105
 5030.00    0.98520   1.02603   10.150
 5031.00    0.97976   1.02619   10.207
 5032.00    1.03274   1.02800    9.683
 5033.00    1.04501   1.03174    9.569
 5034.00    1.08996   1.03663    9.175
 5035.00    1.06118   1.04045    9.423
 5036.00    1.07282   1.04055    9.321
 5037.00    1.00226   1.03542    9.977
 5038.00    1.02232   1.02690    9.782
 5039.00    1.00874   1.01815    9.913
 5040.00    0.98619   1.01057   10.140
 5041.00    0.96519   1.00218   10.361
 5042.00    0.97097   0.99100   10.299
 5043.00    0.96540   0.97989   10.358
 5044.00    0.96016   0.97551   10.415
 5045.00    0.97328   0.98245   10.275
 5046.00    1.00815   0.99877    9.919
 5047.00    0.98617   1.01743   10.140
 5048.00    1.04568   1.03197    9.563
 5049.00    1.04642   1.03889    9.556
 5050.00    1.01415   1.03771    9.860
 5051.00    1.02694   1.03001    9.738
 5052.00    1.01321   1.01934    9.870
 5053.00    1.01193   1.01050    9.882
 5054.00    0.99253   1.00790   10.075
 5055.00    1.05003   1.01293    9.524
 5056.00    1.04273   1.02319    9.590
 5057.00    1.03408   1.03391    9.670
 5058.00    0.99706   1.04206   10.029
 5059.00    0.99168   1.04698   10.084
 5060.00    1.03023   1.04939    9.707
 5061.00    1.01817   1.05047    9.822
 5062.00    1.05729   1.05095    9.458
 5063.00    1.03701   1.05097    9.643
 5064.00    1.03315   1.04971    9.679
 5065.00    1.04320   1.04553    9.586
 5066.00    1.02007   1.03780    9.803
 5067.00    1.01171   1.02882    9.884
 5068.00    0.96194   1.02162   10.396
 5069.00    0.96101   1.01798   10.406
 5070.00    0.99899   1.01716   10.010
 5071.00    0.99738   1.01754   10.026
 5072.00    1.06435   1.01837    9.395
 5073.00    1.04369   1.01929    9.581
 5074.00    1.03252   1.01948    9.685
 5075.00    1.02064   1.01893    9.798
 5076.00    1.04235   1.01841    9.594
 5077.00    0.97533   1.01850   10.253
 5078.00    1.01473   1.01808    9.855
 5079.00    0.99912   1.01450   10.009
 5080.00    1.01292   1.00577    9.872
 5081.00    0.98613   0.99376   10.141
 5082.00    0.96214   0.98428   10.394
 5083.00    0.99740   0.98104   10.026
 5084.00    0.96701   0.98329   10.341
 5085.00    0.94399   0.98844   10.593
 5086.00    1.02353   0.99482    9.770
 5087.00    1.03184   1.00242    9.691
 5088.00    0.99927   1.01092   10.007
 5089.00    1.02969   1.01884    9.712
 5090.00    1.02432   1.02478    9.763
 5091.00    1.02090   1.02831    9.795
 5092.00    1.04226   1.03016    9.595
 5093.00    1.04631   1.03149    9.557
 5094.00    1.04659   1.03328    9.555
 5095.00    1.04072   1.03559    9.609
 5096.00    1.05326   1.03718    9.494
 5097.00    1.01131   1.03605    9.888
 5098.00    1.03440   1.03067    9.667
 5099.00    1.04335   1.02178    9.585
 5100.00    1.03826   1.01196    9.632
 5101.00    1.01779   1.00476    9.825
 5102.00    0.96348   1.00288   10.379
 5103.00    0.96241   1.00646   10.391
 5104.00    0.97403   1.01295   10.267
 5105.00    0.97997   1.01863   10.204
 5106.00    0.98268   1.02091   10.176
 5107.00    1.04675   1.01889    9.553
 5108.00    1.05343   1.01319    9.493
 5109.00    1.00341   1.00532    9.966
 5110.00    1.01275   0.99819    9.874
 5111.00    0.97591   0.99433   10.247
 5112.00    0.92631   0.99481   10.796
 5113.00    0.97668   0.99941   10.239
 5114.00    0.98503   1.00700   10.152
 5115.00    1.02522   1.01548    9.754
 5116.00    1.04267   1.02313    9.591
 5117.00    1.06351   1.02909    9.403
 5118.00    1.03118   1.03355    9.698
 5119.00    1.02691   1.03677    9.738
 5120.00    1.04901   1.03842    9.533
 5121.00    1.03210   1.03795    9.689
 5122.00    1.00164   1.03488    9.984
 5123.00    0.99099   1.02937   10.091
 5124.00    1.01126   1.02183    9.889
 5125.00    1.00113   1.01291    9.989
 5126.00    0.99139   1.00391   10.087
 5127.00    0.97087   0.99716   10.300
 5128.00    0.99943   0.99365   10.006
 5129.00    0.96895   0.99284   10.320
 5130.00    0.92240   0.99343   10.841
 5131.00    0.96585   0.99467   10.354
 5132.00    0.97568   0.99681   10.249
 5133.00    0.99178   1.00018   10.083
 5134.00    1.00879   1.00458    9.913
 5135.00    1.01448   1.00912    9.857
 5136.00    0.99866   1.01287   10.013
 5137.00    1.04011   1.01500    9.614
 5138.00    0.97979   1.01485   10.206
 5139.00    1.01299   1.01177    9.872
 5140.00    0.99008   1.00613   10.100
 5141.00    0.99627   0.99931   10.037
 5142.00    0.98371   0.99374   10.166
 5143.00    0.95695   0.99098   10.450
 5144.00    0.97466   0.99086   10.260
 5145.00    0.98659   0.99249   10.136
 5146.00    0.99697   0.99512   10.030
 5147.00    1.01056   0.99798    9.895
 5148.00    1.00774   0.99986    9.923
 5149.00    1.01623   1.00020    9.840
 5150.00    0.98981   0.99974   10.103
 5151.00    0.99836   0.99930   10.016
 5152.00    0.99508   0.99805   10.049
 5153.00    0.96893   0.99510   10.321
 5154.00    0.96037   0.99084   10.413
 5155.00    0.97597   0.98721   10.246
 5156.00    0.96061   0.98648   10.410
 5157.00    0.96879   0.98984   10.322
 5158.00    0.99998   0.99723   10.000
 5159.00    1.00976   1.00662    9.903
 5160.00    1.03306   1.01571    9.680
 5161.00    1.00261   1.02250    9.974
 5162.00    1.04785   1.02606    9.543
 5163.00    1.06729   1.02623    9.369
 5164.00    1.02773   1.02308    9.730
 5165.00    1.04415   1.01626    9.577
 5166.00    1.02214   1.00454    9.783
 5167.00    1.01559   0.98541    9.846
 5168.00    0.96081   0.95736   10.408
 5169.00    0.95094   0.92480   10.516
 5170.00    0.89445   0.89749   11.180
 5171.00    0.88438   0.88438   11.256
 5172.00    0.83845   0.88436   11.256
 5173.00    0.89435   0.88783   11.181
 5174.00    0.92109   0.88797   10.857
 5175.00    0.92156   0.88715   10.851
 5176.00    0.87583   0.89502   11.256
 5177.00    0.88190   0.91560   11.256
 5178.00    0.96429   0.94334   10.370
 5179.00    0.99306   0.96904   10.070
 5180.00    1.04827   0.98577    9.540
 5181.00    1.04636   0.99193    9.557
 5182.00    1.03764   0.98765    9.637
 5183.00    1.04974   0.97263    9.526
 5184.00    1.00903   0.94834    9.911
 5185.00    0.99014   0.92029   10.100
 5186.00    0.91791   0.89958   10.894
 5187.00    0.92534   0.89580   10.807
 5188.00    0.89267   0.91016   11.202
 5189.00    0.92836   0.93442   10.772
 5190.00    0.94682   0.95694   10.562
 5191.00    1.00101   0.97145    9.990
 5192.00    1.00721   0.97743    9.928
 5193.00    0.99348   0.97663   10.066
 5194.00    1.02804   0.97177    9.727
 5195.00    1.01230   0.96631    9.879
 5196.00    1.00326   0.96343    9.968
 5197.00    0.99333   0.96493   10.067
 5198.00    0.98940   0.97012   10.107
 5199.00    0.98447   0.97758   10.158
 5200.00    0.98933   0.98577   10.108
 5201.00    1.01852   0.99341    9.818
 5202.00    1.02128   0.99878    9.792
 5203.00    0.98437   1.00022   10.159
 5204.00    0.98795   0.99633   10.122
 5205.00    1.00137   0.98675    9.986
 5206.00    0.97543   0.97253   10.252
 5207.00    0.98500   0.95659   10.152
 5208.00    1.00631   0.94281    9.937
 5209.00    0.95074   0.93414   10.518
 5210.00    0.98210   0.93101   10.182
 5211.00    0.97464   0.93304   10.260
 5212.00    0.96470   0.94058   10.366
 5213.00    0.94361   0.95335   10.598
 5214.00    0.99621   0.96987   10.038
 5215.00    0.98026   0.98571   10.201
 5216.00    1.04579   0.99618    9.562
 5217.00    1.01501   0.99888    9.852
 5218.00    1.02199   0.99587    9.785
 5219.00    1.02174   0.99234    9.787
 5220.00    1.02510   0.99315    9.755
 5221.00    1.02497   0.99964    9.756
 5222.00    1.02487   1.00897    9.757
 5223.00    1.02457   1.01742    9.760
 5224.00    1.03980   1.02154    9.617
 5225.00    1.05004   1.01941    9.523
 5226.00    1.05049   1.00996    9.519
 5227.00    0.99041   0.99341   10.097
 5228.00    0.93735   0.97321   10.668
 5229.00    0.93461   0.95654   10.700
 5230.00    0.93181   0.95067   10.732
 5231.00    0.93175   0.95803   10.733
 5232.00    0.93739   0.97267   10.668
 5233.00    0.95548   0.98611   10.466
 5234.00    0.98422   0.99219   10.160
 5235.00    1.01582   0.99135    9.844
 5236.00    1.00819   0.98876    9.919
 5237.00    1.00286   0.98966    9.972
 5238.00    0.98889   0.99625   10.112
 5239.00    0.97288   1.00659   10.279
 5240.00    0.96952   1.01674   10.314
 5241.00    1.02789   1.02361    9.729
 5242.00    1.04438   1.02659    9.575
 5243.00    1.07485   1.02683    9.304
 5244.00    1.03194   1.02600    9.690
 5245.00    1.03213   1.02523    9.689
 5246.00    1.06167   1.02474    9.419
 5247.00    0.99840   1.02352   10.016
 5248.00    1.02154   1.02024    9.789
 5249.00    1.06172   1.01456    9.419
 5250.00    1.03278   1.00763    9.683
 5251.00    0.98479   1.00146   10.154
 5252.00    0.98757   0.99723   10.126
 5253.00    0.98945   0.99539   10.107
 5254.00    0.98040   0.99567   10.200
 5255.00    1.00027   0.99730    9.997
 5256.00    0.95541   0.99944   10.467
 5257.00    0.95431   1.00192   10.479
 5258.00    1.01717   1.00576    9.831
 5259.00    1.03615   1.01147    9.651
 5260.00    1.00481   1.01787    9.952
 5261.00    0.99259   1.02180   10.075
 5262.00    1.03404   1.02021    9.671
 5263.00    1.01509   1.01160    9.851
 5264.00    0.97350   0.99698   10.272
 5265.00    0.96494   0.97927   10.363
 5266.00    0.95002   0.96205   10.526
 5267.00    0.93931   0.94866   10.646
 5268.00    0.95642   0.94067   10.456
 5269.00    0.90936   0.93700   10.997
 5270.00    0.91141   0.93408   10.972
 5271.00    0.93373   0.92897   10.710
 5272.00    0.93934   0.92298   10.646
 5273.00    0.93537   0.92240   10.691
 5274.00    0.92528   0.93079   10.807
 5275.00    0.93248   0.94599   10.724
 5276.00    0.98377   0.96205   10.165
 5277.00    0.95463   0.97425   10.475
 5278.00    0.98111   0.98347   10.193
 5279.00    0.97446   0.99224   10.262
 5280.00    0.99727   1.00155   10.027
 5281.00    1.01458   1.00947    9.856
 5282.00    1.02926   1.01242    9.716
 5283.00    1.02810   1.00894    9.727
 5284.00    0.97733   1.00071   10.232
 5285.00    0.99779   0.99230   10.022
 5286.00    0.99839   0.98819   10.016
 5287.00    1.01082   0.99090    9.893
 5288.00    0.96410   0.99963   10.372
 5289.00    0.97769   1.01091   10.228
 5290.00    0.99482   1.02058   10.052
 5291.00    0.99293   1.02665   10.071
 5292.00    1.03266   1.02950    9.684
 5293.00    1.02611   1.03033    9.746
 5294.00    1.03182   1.03002    9.692
 5295.00    1.04450   1.02859    9.574
 5296.00    1.03451   1.02553    9.666
 5297.00    0.99908   1.02014   10.009
 5298.00    1.01437   1.01171    9.858
 5299.00    0.99158   1.00096   10.085
 5300.00    0.97541   0.99087   10.252
 5301.00    0.99316   0.98465   10.069
 5302.00    1.00246   0.98390    9.975
 5303.00    1.00991   0.98743    9.902
 5304.00    0.98339   0.99288   10.169
 5305.00    1.00916   0.99923    9.909
 5306.00    1.00779   1.00623    9.923
 5307.00    0.99026   1.01297   10.098
 5308.00    1.01207   1.01804    9.881
 5309.00    0.99583   1.02021   10.042
 5310.00    0.98083   1.02081   10.195
 5311.00    1.03651   1.02175    9.648
 5312.00    1.03497   1.02389    9.662
 5313.00    0.99238   1.02653   10.077
 5314.00    0.99789   1.02790   10.021
 5315.00    1.01037   1.02714    9.897
 5316.00    1.01188   1.02408    9.883
 5317.00    1.03860   1.01919    9.628
 5318.00    1.05413   1.01346    9.486
 5319.00    1.03320   1.00885    9.679
 5320.00    1.01578   1.00705    9.845
 5321.00    1.02150   1.00850    9.790
 5322.00    1.03912   1.01113    9.624
 5323.00    0.99129   1.01210   10.088
 5324.00    1.04514   1.00954    9.568
 5325.00    1.01657   1.00331    9.837
 5326.00    0.97715   0.99488   10.234
 5327.00    0.99266   0.98533   10.074
 5328.00    1.00613   0.97452    9.939
 5329.00    0.97590   0.96137   10.247
 5330.00    0.94850   0.94740   10.543
 5331.00    0.91052   0.93820   10.983
 5332.00    0.92150   0.93925   10.852
 5333.00    0.95788   0.95168   10.440
 5334.00    0.96704   0.96908   10.341
 5335.00    0.99405   0.98464   10.060
 5336.00    1.04344   0.99488    9.584
 5337.00    1.02879   1.00035    9.720
 5338.00    0.99385   1.00266   10.062
 5339.00    1.00936   1.00256    9.907
 5340.00    0.99606   0.99982   10.040
 5341.00    0.98020   0.99457   10.202
 5342.00    1.00293   0.98776    9.971
 5343.00    1.02228   0.98188    9.782
 5344.00    0.98946   0.98001   10.106
 5345.00    0.97724   0.98326   10.233
 5346.00    0.98496   0.98916   10.153
 5347.00    1.01053   0.99405    9.896
 5348.00    1.02892   0.99547    9.719
 5349.00    1.00500   0.99414    9.950
 5350.00    0.97951   0.99205   10.209
 5351.00    0.99285   0.99104   10.072
 5352.00    1.01080   0.99236    9.893
 5353.00    0.99208   0.99616   10.080
 5354.00    1.00020   1.00180    9.998
 5355.00    1.00098   1.00769    9.990
 5356.00    1.00422   1.01292    9.958
 5357.00    1.00316   1.01737    9.968
 5358.00    0.99548   1.02124   10.045
 5359.00    1.02377   1.02454    9.768
 5360.00    1.03345   1.02643    9.676
 5361.00    1.05022   1.02651    9.522
 5362.00    1.05688   1.02457    9.462
 5363.00    1.03685   1.02058    9.645
 5364.00    1.03963   1.01492    9.619
 5365.00    1.01516   1.00825    9.851
 5366.00    0.99387   1.00164   10.062
 5367.00    1.00807   0.99625    9.920
 5368.00    1.00000   0.99281   10.000
 5369.00    0.97972   0.99102   10.207
 5370.00    0.98990   0.98923   10.102
 5371.00    0.98697   0.98497   10.132
 5372.00    0.95372   0.97704   10.485
 5373.00    0.96196   0.96773   10.395
 5374.00    0.99386   0.96188   10.062
 5375.00    0.95628   0.96401   10.457
 5376.00    0.99929   0.97461   10.007
 5377.00    1.02215   0.98935    9.783
 5378.00    1.03891   1.00292    9.625
 5379.00    1.03902   1.01159    9.624
 5380.00    1.01432   1.01526    9.859
 5381.00    0.99791   1.01515   10.021
 5382.00    0.98474   1.01278   10.155
 5383.00    1.00486   1.00923    9.952
 5384.00    1.02178   1.00528    9.787
 5385.00    1.00169   1.00205    9.983
 5386.00    0.96677   1.00079   10.344
 5387.00    1.01171   1.00224    9.884
 5388.00    1.01613   1.00584    9.841
 5389.00    1.00687   1.00961    9.932
 5390.00    1.02580   1.01138    9.748
 5391.00    1.00429   1.01003    9.957
 5392.00    0.99779   1.00598   10.022
 5393.00    0.98941   1.00044   10.107
 5394.00    0.99925   0.99468   10.007
 5395.00    0.97572   0.98949   10.249
 5396.00    0.99032   0.98491   10.098
 5397.00    0.99796   0.98006   10.020
 5398.00    1.01088   0.97419    9.892
 5399.00    0.99217   0.96814   10.079
 5400.00    0.99302   0.96482   10.070
 5401.00    0.96358   0.96695   10.378
 5402.00    0.93886   0.97378   10.651
 5403.00    0.98343   0.98174   10.169
 5404.00    0.96959   0.98613   10.314
 5405.00    0.97166   0.98440   10.292
 5406.00    0.97120   0.97646   10.297
 5407.00    0.94613   0.96515   10.569
 5408.00    0.95201   0.95512   10.504
 5409.00    0.96310   0.95016   10.383
 5410.00    0.96690   0.95035   10.342
 5411.00    0.97006   0.95234   10.309
 5412.00    0.98555   0.95350   10.147
 5413.00    0.98052   0.95392   10.199
 5414.00    0.98811   0.95569   10.120
 5415.00    0.99561   0.95992   10.044
 5416.00    1.03515   0.96557    9.660
 5417.00    1.03281   0.97180    9.682
 5418.00    1.02791   0.97847    9.729
 5419.00    1.01522   0.98549    9.850
 5420.00    0.99866   0.99211   10.013
 5421.00    0.98944   0.99690   10.107
 5422.00    0.96498   0.99926   10.363
 5423.00    0.96766   0.99942   10.334
 5424.00    0.99516   0.99782   10.049
 5425.00    1.01149   0.99498    9.886
 5426.00    0.98792   0.99193   10.122
 5427.00    0.98599   0.99013   10.142
 5428.00    0.97123   0.99062   10.296
 5429.00    0.95531   0.99194   10.468
 5430.00    0.98884   0.99093   10.113
 5431.00    0.99564   0.98565   10.044
 5432.00    1.01564   0.97776    9.846
 5433.00    0.97397   0.97153   10.267
 5434.00    0.97689   0.96884   10.237
 5435.00    0.98721   0.96832   10.130
 5436.00    0.96140   0.96743   10.402
 5437.00    0.95479   0.96648   10.474
 5438.00    1.00309   0.96826    9.969
 5439.00    1.01192   0.97472    9.882
 5440.00    0.99852   0.98484   10.015
 5441.00    0.98335   0.99552   10.169
 5442.00    1.01270   1.00400    9.875
 5443.00    1.00226   1.00947    9.977
 5444.00    1.00428   1.01183    9.957
 5445.00    1.02611   1.01074    9.745
 5446.00    1.01015   1.00517    9.900
 5447.00    1.01125   0.99471    9.889
 5448.00    0.98452   0.98124   10.157
 5449.00    0.95979   0.96894   10.419
 5450.00    0.92388   0.96276   10.824
 5451.00    0.95443   0.96485   10.477
 5452.00    0.98609   0.97310   10.141
 5453.00    1.00419   0.98256    9.958
 5454.00    1.01242   0.98835    9.877
 5455.00    1.05556   0.98811    9.474
 5456.00    1.02270   0.98181    9.778
 5457.00    1.02368   0.97231    9.769
 5458.00    0.99202   0.96453   10.080
 5459.00    0.95434   0.96314   10.478
 5460.00    0.94701   0.96915   10.560
 5461.00    0.99502   0.97910   10.050
 5462.00    0.99301   0.98740   10.070
 5463.00    0.98829   0.99076   10.119
 5464.00    0.98997   0.98920   10.101
 5465.00    0.97597   0.98522   10.246
 5466.00    1.00966   0.98184    9.904
 5467.00    0.99316   0.98105   10.069
 5468.00    1.00666   0.98318    9.934
 5469.00    1.03277   0.98714    9.683
 5470.00    1.01836   0.99150    9.820
 5471.00    1.04302   0.99508    9.588
 5472.00    1.03063   0.99715    9.703
 5473.00    1.03305   0.99735    9.680
 5474.00    0.99085   0.99565   10.092
 5475.00    0.95257   0.99219   10.498
 5476.00    0.98239   0.98696   10.179
 5477.00    1.00372   0.97994    9.963
 5478.00    0.98768   0.97212   10.125
 5479.00    0.98734   0.96575   10.128
 5480.00    0.98107   0.96338   10.193
 5481.00    0.97640   0.96583   10.242
 5482.00    0.99941   0.97111   10.006
 5483.00    1.00090   0.97633    9.991
 5484.00    0.99808   0.97998   10.019
 5485.00    1.00330   0.98270    9.967
 5486.00    0.99717   0.98582   10.028
 5487.00    1.02982   0.98927    9.710
 5488.00    0.98701   0.99181   10.132
 5489.00    0.98225   0.99221   10.181
 5490.00    0.96962   0.99067   10.313
 5491.00    0.96850   0.98871   10.325
 5492.00    0.99131   0.98777   10.088
 5493.00    1.01908   0.98837    9.813
 5494.00    1.00363   0.99006    9.964
 5495.00    1.04553   0.99195    9.565
 5496.00    1.00528   0.99316    9.948
 5497.00    0.98361   0.99286   10.167
 5498.00    0.96807   0.99066   10.330
 5499.00    0.99620   0.98702   10.038
 5500.00    0.98094   0.98329   10.194
 5501.00    0.98368   0.98073   10.166
 5502.00    0.96355   0.97933   10.378
 5503.00    0.95562   0.97803   10.464
 5504.00    0.99589   0.97642   10.041
 5505.00    1.00028   0.97512    9.997
 5506.00    1.00734   0.97464    9.927
 5507.00    0.99139   0.97407   10.087
 5508.00    0.99928   0.97220   10.007
 5509.00    0.98046   0.96966   10.199
 5510.00    0.98969   0.96856   10.104
 5511.00    0.98917   0.97027   10.110
 5512.00    0.96964   0.97369   10.313
 5513.00    0.99529   0.97608   10.047
 5514.00    0.96594   0.97574   10.353
 5515.00    0.99372   0.97320   10.063
 5516.00    0.97912   0.97068   10.213
 5517.00    0.98281   0.97026   10.175
 5518.00    0.99745   0.97273   10.026
 5519.00    1.01356   0.97744    9.866
 5520.00    0.99895   0.98304   10.011
 5521.00    1.02000   0.98831    9.804
 5522.00    0.98575   0.99246   10.145
 5523.00    0.98587   0.99514   10.143
 5524.00    1.02640   0.99633    9.743
 5525.00    1.01441   0.99603    9.858
 5526.00    1.00706   0.99405    9.930
 5527.00    0.99642   0.98978   10.036
 5528.00    0.97877   0.98275   10.217
 5529.00    0.95452   0.97377   10.476
 5530.00    0.94391   0.96547   10.594
 5531.00    0.95584   0.96130   10.462
 5532.00    0.97328   0.96296   10.275
 5533.00    1.00142   0.96913    9.986
 5534.00    0.99547   0.97621   10.046
 5535.00    1.03165   0.98094    9.693
 5536.00    1.01511   0.98234    9.851
 5537.00    0.94582   0.98160   10.573
 5538.00    0.98004   0.98083   10.204
 5539.00    1.01295   0.98147    9.872
 5540.00    0.98553   0.98357   10.147
 5541.00    0.99093   0.98621   10.092
 5542.00    0.95653   0.98853   10.454
 5543.00    0.95268   0.99005   10.497
 5544.00    0.98109   0.99054   10.193
 5545.00    1.01372   0.98997    9.865
 5546.00    1.00577   0.98891    9.943
 5547.00    0.99806   0.98828   10.019
 5548.00    1.00395   0.98872    9.961
 5549.00    0.99863   0.99026   10.014
 5550.00    1.00391   0.99250    9.961
 5551.00    0.99752   0.99506   10.025
 5552.00    1.00239   0.99741    9.976
 5553.00    1.01025   0.99881    9.899
 5554.00    1.00817   0.99871    9.919
 5555.00    1.01415   0.99723    9.860
 5556.00    0.99314   0.99504   10.069
 5557.00    1.00818   0.99305    9.919
 5558.00    1.00331   0.99196    9.967
 5559.00    0.98532   0.99181   10.149
 5560.00    1.00574   0.99210    9.943
 5561.00    1.02169   0.99223    9.788
 5562.00    0.99860   0.99180   10.014
 5563.00    0.98223   0.99047   10.181
 5564.00    0.97023   0.98809   10.307
 5565.00    0.97344   0.98503   10.273
 5566.00    1.00772   0.98203    9.923
 5567.00    0.97388   0.97959   10.268
 5568.00    1.00288   0.97756    9.971
 5569.00    0.98763   0.97564   10.125
 5570.00    1.02051   0.97366    9.799
 5571.00    0.99417   0.97180   10.059
 5572.00    0.96571   0.97013   10.355
 5573.00    0.97189   0.96870   10.289
 5574.00    0.99945   0.96747   10.006
 5575.00    0.99179   0.96677   10.083
 5576.00    0.98001   0.96723   10.204
 5577.00    0.96540   0.96905   10.358
 5578.00    0.98583   0.97173   10.144
 5579.00    0.98422   0.97445   10.160
 5580.00    0.96395   0.97678   10.374
 5581.00    0.97656   0.97863   10.240
 5582.00    0.96133   0.97987   10.402
 5583.00    0.97337   0.98044   10.274
 5584.00    0.98901   0.98036   10.111
 5585.00    0.98469   0.97966   10.156
 5586.00    0.94628   0.97782   10.568
 5587.00    0.95102   0.97372   10.515
 5588.00    0.97792   0.96672   10.226
 5589.00    0.96646   0.95766   10.347
 5590.00    0.96822   0.94868   10.328
 5591.00    0.95473   0.94254   10.474
 5592.00    0.92766   0.94070   10.780
 5593.00    0.96061   0.94306   10.410
 5594.00    0.98203   0.94773   10.183
 5595.00    0.96706   0.95257   10.341
 5596.00    0.97545   0.95635   10.252
 5597.00    0.96751   0.95923   10.336
 5598.00    0.96338   0.96159   10.380
 5599.00    0.97201   0.96303   10.288
 5600.00    0.96596   0.96276   10.352
 5601.00    0.96135   0.96064   10.402
 5602.00    0.98427   0.95743   10.160
 5603.00    0.96626   0.95435   10.349
 5604.00    0.95027   0.95243   10.523
 5605.00    0.96649   0.95306   10.347
 5606.00    0.96240   0.95721   10.391
 5607.00    0.95511   0.96447   10.470
 5608.00    0.97801   0.97308   10.225
 5609.00    0.96602   0.98096   10.352
 5610.00    0.95546   0.98673   10.466
 5611.00    0.96741   0.99027   10.337
 5612.00    0.98945   0.99208   10.107
 5613.00    0.98454   0.99256   10.157
 5614.00    1.01536   0.99138    9.849
 5615.00    0.98867   0.98743   10.115
 5616.00    0.96031   0.97993   10.413
 5617.00    0.97781   0.97000   10.227
 5618.00    0.96336   0.96114   10.380
 5619.00    0.93079   0.95688   10.744
 5620.00    0.92909   0.95858   10.763
 5621.00    0.91686   0.96401   10.907
 5622.00    0.95797   0.96999   10.439
 5623.00    0.98761   0.97425   10.125
 5624.00    0.97495   0.97618   10.257
 5625.00    0.95602   0.97597   10.460
 5626.00    0.98993   0.97437   10.102
 5627.00    0.95815   0.97257   10.437
 5628.00    0.96355   0.97212   10.378
 5629.00    0.95503   0.97378   10.471
 5630.00    0.98406   0.97706   10.162
 5631.00    0.98282   0.98081   10.175
 5632.00    0.94370   0.98387   10.597
 5633.00    0.96216   0.98570   10.393
 5634.00    0.98139   0.98613   10.190
 5635.00    0.97776   0.98533   10.227
 5636.00    0.98407   0.98364   10.162
 5637.00    0.99744   0.98163   10.026
 5638.00    0.96536   0.97952   10.359
 5639.00    0.98819   0.97756   10.120
 5640.00    0.96042   0.97580   10.412
 5641.00    0.95792   0.97438   10.439
 5642.00    0.93752   0.97332   10.666
 5643.00    0.98972   0.97275   10.104
 5644.00    0.95893   0.97270   10.428
 5645.00    0.96813   0.97334   10.329
 5646.00    0.97856   0.97463   10.219
 5647.00    0.98152   0.97627   10.188
 5648.00    0.99663   0.97803   10.034
 5649.00    0.95950   0.97949   10.422
 5650.00    0.95394   0.98033   10.483
 5651.00    0.96854   0.98039   10.325
 5652.00    0.98835   0.97986   10.118
 5653.00    0.99361   0.97914   10.064
 5654.00    0.96528   0.97862   10.360
 5655.00    0.99923   0.97813   10.008
 5656.00    0.97512   0.97707   10.255
 5657.00    0.96650   0.97485   10.347
 5658.00    0.93342   0.97087   10.713
 5659.00    0.90071   0.96536   11.102
 5660.00    0.93162   0.95942   10.734
 5661.00    0.94718   0.95499   10.558
 5662.00    0.92819   0.95352   10.774
 5663.00    0.91654   0.95485   10.911
 5664.00    0.96142   0.95757   10.401
 5665.00    0.98169   0.96053   10.186
 5666.00    1.00187   0.96337    9.981
 5667.00    0.95094   0.96607   10.516
 5668.00    0.94294   0.96840   10.605
 5669.00    0.97961   0.96980   10.208
 5670.00    0.95356   0.97030   10.487
 5671.00    0.93430   0.97059   10.703
 5672.00    0.95864   0.97137   10.431
 5673.00    0.93719   0.97296   10.670
 5674.00    0.95957   0.97494   10.421
 5675.00    0.94861   0.97705   10.542
 5676.00    0.96086   0.97869   10.407
 5677.00    0.96478   0.97987   10.365
 5678.00    0.93727   0.98031   10.669
 5679.00    0.95208   0.98038   10.503
 5680.00    0.96174   0.98005   10.398
 5681.00    0.98098   0.97913   10.194
 5682.00    0.95837   0.97711   10.434
 5683.00    0.93563   0.97377   10.688
 5684.00    0.93012   0.96941   10.751
 5685.00    0.96112   0.96486   10.404
 5686.00    0.95787   0.96139   10.440
 5687.00    0.96620   0.95968   10.350
 5688.00    0.95383   0.95960   10.484
 5689.00    0.96528   0.96016   10.360
 5690.00    0.96994   0.96054   10.310
 5691.00    0.95574   0.96099   10.463
 5692.00    0.96369   0.96226   10.377
 5693.00    0.96556   0.96500   10.357
 5694.00    0.97248   0.96894   10.283
 5695.00    0.95723   0.97317   10.447
 5696.00    0.96922   0.97657   10.318
 5697.00    0.94403   0.97843   10.593
 5698.00    0.99032   0.97859   10.098
 5699.00    0.99976   0.97738   10.002
 5700.00    0.95904   0.97522   10.427
 5701.00    0.97399   0.97223   10.267
 5702.00    0.98227   0.96863   10.180
 5703.00    0.95475   0.96519   10.474
 5704.00    0.98636   0.96275   10.138
 5705.00    0.97522   0.96195   10.254
 5706.00    0.95933   0.96230   10.424
 5707.00    0.97284   0.96278   10.279
 5708.00    0.97828   0.96192   10.222
 5709.00    0.97762   0.95908   10.229
 5710.00    0.98684   0.95436   10.133
 5711.00    0.95990   0.94873   10.418
 5712.00    0.93600   0.94371   10.684
 5713.00    0.94637   0.94116   10.567
 5714.00    0.94746   0.94221   10.555
 5715.00    0.94185   0.94674   10.617
 5716.00    0.99722   0.95324   10.028
 5717.00    0.95339   0.95973   10.489
 5718.00    0.98845   0.96484   10.117
 5719.00    0.95952   0.96827   10.422
 5720.00    0.92379   0.97041   10.825
 5721.00    0.95036   0.97186   10.522
 5722.00    0.99107   0.97329   10.090
 5723.00    0.97017   0.97497   10.307
 5724.00    1.00843   0.97687    9.916
 5725.00    1.01095   0.97862    9.892
 5726.00    0.98568   0.97982   10.145
 5727.00    0.96268   0.98009   10.388
 5728.00    0.93169   0.97934   10.733
 5729.00    0.98332   0.97759   10.170
 5730.00    0.97852   0.97550   10.220
 5731.00    0.99913   0.97384   10.009
 5732.00    0.98940   0.97297   10.107
 5733.00    0.97549   0.97293   10.251
 5734.00    0.92313   0.97317   10.833
 5735.00    0.93800   0.97368   10.661
 5736.00    0.93923   0.97452   10.647
 5737.00    0.93985   0.97576   10.640
 5738.00    0.94360   0.97680   10.598
 5739.00    0.99960   0.97710   10.004
 5740.00    1.01002   0.97671    9.901
 5741.00    0.98983   0.97595   10.103
 5742.00    1.00458   0.97533    9.954
 5743.00    1.01421   0.97491    9.860
 5744.00    0.95333   0.97467   10.490
 5745.00    0.99021   0.97450   10.099
 5746.00    0.97621   0.97457   10.244
 5747.00    0.92089   0.97476   10.859
 5748.00    0.98062   0.97496   10.198
 5749.00    0.98619   0.97504   10.140
 5750.00    0.99570   0.97515   10.043
 5751.00    0.97220   0.97551   10.286
 5752.00    0.98624   0.97588   10.140
 5753.00    1.01716   0.97537    9.831
 5754.00    0.95413   0.97328   10.481
 5755.00    0.95018   0.96988   10.524
 5756.00    0.99489   0.96677   10.051
 5757.00    0.96981   0.96557   10.311
 5758.00    0.97936   0.96715   10.211
 5759.00    0.94990   0.97045   10.527
 5760.00    0.97353   0.97407   10.272
 5761.00    0.98164   0.97625   10.187
 5762.00    0.97871   0.97639   10.218
 5763.00    0.97556   0.97444   10.250
 5764.00    0.96488   0.97135   10.364
 5765.00    0.97219   0.96817   10.286
 5766.00    1.00271   0.96651    9.973
 5767.00    0.96856   0.96714   10.325
 5768.00    0.96323   0.96961   10.382
 5769.00    0.96585   0.97281   10.354
 5770.00    0.96078   0.97534   10.408
 5771.00    0.97953   0.97679   10.209
 5772.00    0.95111   0.97703   10.514
 5773.00    0.95405   0.97638   10.482
 5774.00    0.96028   0.97510   10.414
 5775.00    0.98053   0.97348   10.199
 5776.00    0.98581   0.97165   10.144
 5777.00    0.96060   0.97005   10.410
 5778.00    0.94115   0.96830   10.625
 5779.00    0.97139   0.96658   10.295
 5780.00    1.00483   0.96397    9.952
 5781.00    1.00819   0.96011    9.919
 5782.00    0.97444   0.95539   10.262
 5783.00    0.96887   0.95088   10.321
 5784.00    0.93095   0.94769   10.742
 5785.00    0.97792   0.94658   10.226
 5786.00    0.93062   0.94709   10.746
 5787.00    0.94688   0.94877   10.561
 5788.00    1.00033   0.95079    9.997
 5789.00    0.96950   0.95320   10.315
 5790.00    0.99276   0.95587   10.073
 5791.00    0.96357   0.95844   10.378
 5792.00    0.92855   0.96034   10.769
 5793.00    0.94336   0.96150   10.600
 5794.00    0.92265   0.96234   10.838
 5795.00    0.99012   0.96380   10.100
 5796.00    0.97206   0.96614   10.287
 5797.00    0.95313   0.96880   10.492
 5798.00    0.99451   0.97090   10.055
 5799.00    1.00285   0.97163    9.972
 5800.00    1.01884   0.97141    9.815
 5801.00    0.92454   0.97099   10.816
 5802.00    0.88283   0.97115   11.256
 5803.00    0.93842   0.97197   10.656
 5804.00    0.97620   0.97307   10.244
 5805.00    0.98770   0.97391   10.124
 5806.00    0.99817   0.97409   10.018
 5807.00    1.02927   0.97358    9.716
 5808.00    0.96636   0.97310   10.348
 5809.00    0.92963   0.97292   10.757
 5810.00    0.91698   0.97331   10.905
 5811.00    0.95758   0.97371   10.443
 5812.00    0.95459   0.97380   10.476
 5813.00    0.98568   0.97349   10.145
 5814.00    0.99816   0.97304   10.018
 5815.00    0.97120   0.97266   10.297
 5816.00    0.99176   0.97220   10.083
 5817.00    0.99852   0.97140   10.015
 5818.00    0.97265   0.97030   10.281
 5819.00    0.99976   0.96957   10.002
 5820.00    0.97380   0.96988   10.269
 5821.00    1.00338   0.97137    9.966
 5822.00    0.99511   0.97325   10.049
 5823.00    1.01625   0.97468    9.840
 5824.00    0.99901   0.97516   10.010
 5825.00    0.99634   0.97484   10.037
 5826.00    0.99546   0.97416   10.046
 5827.00    0.98540   0.97374   10.148
 5828.00    1.00432   0.97379    9.957
 5829.00    1.00600   0.97463    9.940
 5830.00    0.98379   0.97543   10.165
 5831.00    0.99247   0.97610   10.076
 5832.00    1.00020   0.97622    9.998
 5833.00    1.00797   0.97592    9.921
 5834.00    0.93954   0.97533   10.643
 5835.00    0.94079   0.97450   10.629
 5836.00    1.00411   0.97341    9.959
 5837.00    0.99829   0.97241   10.017
 5838.00    0.99437   0.97195   10.057
 5839.00    0.99116   0.97200   10.089
 5840.00    0.99518   0.97278   10.048
 5841.00    0.98980   0.97373   10.103
 5842.00    0.98948   0.97459   10.106
 5843.00    0.93569   0.97502   10.687
 5844.00    0.92882   0.97493   10.766
 5845.00    0.96638   0.97442   10.348
 5846.00    0.96117   0.97353   10.404
 5847.00    0.94713   0.97229   10.558
 5848.00    0.98168   0.97062   10.187
 5849.00    0.97596   0.96858   10.246
 5850.00    0.96994   0.96669   10.310
 5851.00    0.94309   0.96507   10.603
 5852.00    0.91170   0.96363   10.969
 5853.00    0.92635   0.96165   10.795
 5854.00    0.95094   0.95889   10.516
 5855.00    0.92829   0.95534   10.773
 5856.00    0.89190   0.95175   11.212
 5857.00    0.90257   0.94855   11.080
 5858.00    0.92709   0.94552   10.786
 5859.00    0.95485   0.94238   10.473
 5860.00    0.93692   0.93951   10.673
 5861.00    0.95046   0.93828   10.521
 5862.00    0.94149   0.93949   10.621
 5863.00    0.95587   0.94259   10.462
 5864.00    0.98646   0.94635   10.137
 5865.00    0.94585   0.94956   10.572
 5866.00    0.94944   0.95162   10.532
 5867.00    0.96412   0.95255   10.372
 5868.00    0.94083   0.95237   10.629
 5869.00    0.94408   0.95150   10.592
 5870.00    0.96128   0.95103   10.403
 5871.00    0.97576   0.95148   10.248
 5872.00    0.97353   0.95268   10.272
 5873.00    0.93900   0.95388   10.650
 5874.00    0.89622   0.95405   11.158
 5875.00    0.91230   0.95258   10.961
 5876.00    0.96856   0.94976   10.325
 5877.00    0.93730   0.94643   10.669
 5878.00    0.97151   0.94386   10.293
 5879.00    0.95638   0.94253   10.456
 5880.00    0.96462   0.94243   10.367
 5881.00    0.95626   0.94253   10.457
 5882.00    0.89636   0.94234   11.156
 5883.00    0.89712   0.94111   11.147
 5884.00    0.91135   0.93895   10.973
 5885.00    0.90774   0.93570   11.016
 5886.00    0.92060   0.93164   10.862
 5887.00    0.85727   0.92655   11.256
 5888.00    0.86051   0.91874   11.256
 5889.00    0.84870   0.90525   11.256
 5890.00    0.81981   0.88406   11.256
 5891.00    0.80010   0.85712   11.256
 5892.00    0.83547   0.83289   11.256
 5893.00    0.84969   0.81935   11.256
 5894.00    0.80993   0.81925   11.256
 5895.00    0.79380   0.82576   11.256
 5896.00    0.75644   0.83050   11.256
 5897.00    0.76776   0.82937   11.256
 5898.00    0.83497   0.82537   11.256
 5899.00    0.86235   0.82569   11.256
 5900.00    0.85517   0.83450   11.256
 5901.00    0.86118   0.85053   11.256
 5902.00    0.87379   0.86960   11.256
 5903.00    0.89000   0.88772   11.236
 5904.00    0.93808   0.90298   10.660
 5905.00    0.95336   0.91471   10.489
 5906.00    0.92793   0.92292   10.777
 5907.00    0.94324   0.92821   10.602
 5908.00    0.96291   0.93131   10.385
 5909.00    0.92930   0.93312   10.761
 5910.00    0.93875   0.93424   10.652
 5911.00    0.95233   0.93515   10.501
 5912.00    0.96606   0.93604   10.351
 5913.00    0.98610   0.93656   10.141
 5914.00    0.96245   0.93612   10.390
 5915.00    0.93950   0.93439   10.644
 5916.00    0.91961   0.93136   10.874
 5917.00    0.92489   0.92758   10.812
 5918.00    0.94337   0.92421   10.600
 5919.00    0.93995   0.92237   10.639
 5920.00    0.94593   0.92273   10.572
 5921.00    0.93978   0.92514   10.641
 5922.00    0.95310   0.92843   10.492
 5923.00    0.94997   0.93101   10.527
 5924.00    0.96631   0.93254   10.349
 5925.00    0.96233   0.93340   10.391
 5926.00    0.93931   0.93455   10.646
 5927.00    0.94092   0.93634   10.628
 5928.00    0.94307   0.93839   10.604
 5929.00    0.92871   0.93982   10.768
 5930.00    0.94398   0.93976   10.593
 5931.00    0.94450   0.93824   10.588
 5932.00    0.97330   0.93572   10.274
 5933.00    0.95707   0.93388   10.449
 5934.00    0.95877   0.93339   10.430
 5935.00    0.94892   0.93414   10.538
 5936.00    0.93228   0.93539   10.726
 5937.00    0.94857   0.93645   10.542
 5938.00    0.97921   0.93723   10.212
 5939.00    0.93720   0.93758   10.670
 5940.00    0.94059   0.93704   10.632
 5941.00    0.96575   0.93544   10.355
 5942.00    0.89126   0.93271   11.220
 5943.00    0.89912   0.92991   11.122
 5944.00    0.90244   0.92768   11.081
 5945.00    0.95265   0.92658   10.497
 5946.00    0.92419   0.92656   10.820
 5947.00    0.91986   0.92739   10.871
 5948.00    0.93781   0.92841   10.663
 5949.00    0.94231   0.92899   10.612
 5950.00    0.93094   0.92905   10.742
 5951.00    0.93493   0.92887   10.696
 5952.00    0.93003   0.92936   10.752
 5953.00    0.92677   0.93033   10.790
 5954.00    0.92563   0.93130   10.803
 5955.00    0.91847   0.93170   10.888
 5956.00    0.93633   0.93115   10.680
 5957.00    0.95369   0.92996   10.486
 5958.00    0.91347   0.92866   10.947
 5959.00    0.90258   0.92778   11.079
 5960.00    0.93500   0.92811   10.695
 5961.00    0.93467   0.92980   10.699
 5962.00    0.95986   0.93251   10.418
 5963.00    0.98136   0.93540   10.190
 5964.00    0.96651   0.93749   10.346
 5965.00    0.94716   0.93826   10.558
 5966.00    0.99054   0.93761   10.095
 5967.00    0.95396   0.93592   10.483
 5968.00    0.92253   0.93394   10.840
 5969.00    0.92362   0.93252   10.827
 5970.00    0.92513   0.93221   10.809
 5971.00    0.92571   0.93307   10.803
 5972.00    0.95302   0.93461   10.493
 5973.00    0.95264   0.93625   10.497
 5974.00    0.92753   0.93738   10.781
 5975.00    0.94048   0.93751   10.633
 5976.00    0.93568   0.93638   10.687
 5977.00    0.94003   0.93419   10.638
 5978.00    0.95905   0.93142   10.427
 5979.00    0.95427   0.92899   10.479
 5980.00    0.94670   0.92777   10.563
 5981.00    0.96960   0.92813   10.314
 5982.00    0.93444   0.92970   10.702
 5983.00    0.94429   0.93139   10.590
 5984.00    0.96090   0.93190   10.407
 5985.00    0.96623   0.93082   10.350
 5986.00    0.94242   0.92864   10.611
 5987.00    0.96579   0.92644   10.354
 5988.00    0.96148   0.92528   10.401
 5989.00    0.92119   0.92535   10.856
 5990.00    0.92849   0.92639   10.770
 5991.00    0.92528   0.92774   10.808
 5992.00    0.93482   0.92911   10.697
 5993.00    0.93410   0.93040   10.706
 5994.00    0.93235   0.93199   10.726
 5995.00    0.94652   0.93390   10.565
 5996.00    0.92029   0.93589   10.866
 5997.00    0.92939   0.93750   10.760
 5998.00    0.95007   0.93797   10.526
 5999.00    0.93721   0.93747   10.670
 6000.00    0.96306   0.93651   10.384
 6001.00    0.93249   0.93555   10.724
 6002.00    0.95448   0.93479   10.477
 6003.00    0.95755   0.93387   10.443
 6004.00    0.95958   0.93246   10.421
 6005.00    0.95362   0.93076   10.486
 6006.00    0.93869   0.92917   10.653
 6007.00    0.93255   0.92790   10.723
 6008.00    0.92605   0.92670   10.799
 6009.00    0.93113   0.92508   10.740
 6010.00    0.93583   0.92310   10.686
 6011.00    0.91856   0.92166   10.887
 6012.00    0.92813   0.92159   10.774
 6013.00    0.91644   0.92287   10.912
 6014.00    0.91203   0.92457   10.965
 6015.00    0.90659   0.92558   11.030
 6016.00    0.91905   0.92580   10.881
 6017.00    0.92292   0.92553   10.835
 6018.00    0.93887   0.92521   10.651
 6019.00    0.91813   0.92485   10.892
 6020.00    0.91358   0.92420   10.946
 6021.00    0.91585   0.92321   10.919
 6022.00    0.90788   0.92184   11.015
 6023.00    0.91287   0.92075   10.954
 6024.00    0.90329   0.92007   11.071
 6025.00    0.89911   0.92014   11.122
 6026.00    0.92933   0.92097   10.760
 6027.00    0.91019   0.92248   10.987
 6028.00    0.92789   0.92465   10.777
 6029.00    0.93418   0.92724   10.705
 6030.00    0.92275   0.92976   10.837
 6031.00    0.90293   0.93196   11.075
 6032.00    0.91793   0.93368   10.894
 6033.00    0.94377   0.93496   10.596
 6034.00    0.92991   0.93573   10.754
 6035.00    0.90062   0.93601   11.104
 6036.00    0.90344   0.93599   11.069
 6037.00    0.91685   0.93580   10.907
 6038.00    0.90391   0.93556   11.063
 6039.00    0.95470   0.93522   10.475
 6040.00    0.92344   0.93458   10.829
 6041.00    0.92992   0.93334   10.754
 6042.00    0.90084   0.93130   11.101
 6043.00    0.91609   0.92691   10.916
 6044.00    0.89514   0.91963   11.171
 6045.00    0.89870   0.91227   11.127
 6046.00    0.93075   0.90710   10.744
 6047.00    0.94555   0.90870   10.576
 6048.00    0.93737   0.91606   10.668
 6049.00    0.90109   0.92444   11.098
 6050.00    0.89587   0.93105   11.162
 6051.00    0.90327   0.93477   11.071
 6052.00    0.91089   0.93634   10.978
 6053.00    0.93162   0.93685   10.734
 6054.00    0.94585   0.93682   10.572
 6055.00    0.94153   0.93623   10.621
 6056.00    0.92050   0.93491   10.864
 6057.00    0.92863   0.93283   10.769
 6058.00    0.93363   0.93028   10.711
 6059.00    0.92527   0.92784   10.808
 6060.00    0.92031   0.92618   10.866
 6061.00    0.91290   0.92572   10.954
 6062.00    0.91255   0.92611   10.958
 6063.00    0.89052   0.92658   11.229
 6064.00    0.88825   0.92605   11.256
 6065.00    0.89496   0.92380   11.174
 6066.00    0.91345   0.92007   10.948
 6067.00    0.91491   0.91613   10.930
 6068.00    0.91629   0.91375   10.914
 6069.00    0.94029   0.91409   10.635
 6070.00    0.91964   0.91702   10.874
 6071.00    0.91393   0.92100   10.942
 6072.00    0.90799   0.92456   11.013
 6073.00    0.90155   0.92702   11.092
 6074.00    0.88491   0.92839   11.256
 6075.00    0.93528   0.92913   10.692
 6076.00    0.90633   0.92943   11.034
 6077.00    0.91248   0.92926   10.959
 6078.00    0.92353   0.92856   10.828
 6079.00    0.91160   0.92733   10.970
 6080.00    0.89860   0.92580   11.128
 6081.00    0.92763   0.92421   10.780
 6082.00    0.93669   0.92268   10.676
 6083.00    0.93648   0.92124   10.678
 6084.00    0.90744   0.91984   11.020
 6085.00    0.90960   0.91846   10.994
 6086.00    0.93394   0.91744   10.707
 6087.00    0.93375   0.91686   10.710
 6088.00    0.92448   0.91681   10.817
 6089.00    0.91964   0.91716   10.874
 6090.00    0.91311   0.91756   10.952
 6091.00    0.90743   0.91776   11.020
 6092.00    0.90339   0.91756   11.069
 6093.00    0.91821   0.91723   10.891
 6094.00    0.89844   0.91697   11.130
 6095.00    0.92422   0.91721   10.820
 6096.00    0.91662   0.91817   10.910
 6097.00    0.90820   0.91964   11.011
 6098.00    0.90349   0.92135   11.068
 6099.00    0.89414   0.92278   11.184
 6100.00    0.91624   0.92341   10.914
